Bruker Nano GmbH Berlin, Germany
Esprit 1.9

Date: 4/5/2021 6:23:56 PM
Real time: 31221
Life time: 30000
Pulse density: 19822


Detector type: XFlash 430
Window type: Custom type
Detector thickness: 0.45
Si dead layer:0.029

Calibration, lin.: 10.001
Calibration, abs.: -956.096
Mn FWHM: 143.691
Fano factor: 0.114
Channels: 4096

Energy Counts
-0.9561     0
-0.9461     0
-0.9361     0
-0.9261     0
-0.9161     0
-0.9061     0
-0.8961     0
-0.8861     0
-0.8761     0
-0.8661     0
-0.8561     0
-0.8461     0
-0.8361     0
-0.8261     0
-0.8161     0
-0.8061     0
-0.7961     0
-0.7861     0
-0.7761     0
-0.7661     0
-0.7561     0
-0.7461     0
-0.7361     0
-0.7261     0
-0.7161     0
-0.7061     0
-0.6961     0
-0.6861     0
-0.6761     0
-0.6661     0
-0.6561     0
-0.6461     0
-0.6361     0
-0.6261     0
-0.6161     0
-0.6061     0
-0.5961     0
-0.5861     0
-0.5761     0
-0.5661     0
-0.5561     0
-0.5461     0
-0.5361     0
-0.5261     0
-0.5161     0
-0.5061     0
 -0.496     0
 -0.486     0
 -0.476     0
 -0.466     0
 -0.456     0
 -0.446     0
 -0.436     0
 -0.426     0
 -0.416     0
 -0.406     0
 -0.396     0
 -0.386     0
 -0.376     0
 -0.366     0
 -0.356     0
 -0.346     0
 -0.336     0
 -0.326     0
 -0.316     0
 -0.306     0
 -0.296     0
 -0.286     0
 -0.276     1
 -0.266     1
 -0.256     1
 -0.246     0
 -0.236     2
 -0.226     1
 -0.216     2
 -0.206     1
 -0.196     3
 -0.186     4
 -0.176     3
 -0.166     1
 -0.156     2
 -0.146     6
 -0.136    10
 -0.126    25
 -0.116    81
 -0.106   228
 -0.096   574
 -0.086  1269
 -0.076  2835
 -0.066  5257
 -0.056  8969
 -0.046 14575
 -0.036 20527
 -0.026 26845
 -0.016 32570
 -0.006 35527
  0.004 35387
  0.014 32259
  0.024 27027
  0.034 20864
  0.044 14197
  0.054  9246
  0.064  5259
  0.074  2836
  0.084  1288
  0.094   549
  0.104   240
  0.114    72
  0.124    28
  0.134     7
  0.144     1
  0.154     1
  0.164     1
  0.174     1
  0.184     0
  0.194    -1
  0.204     3
  0.214     0
  0.224     0
  0.234    -1
  0.244     1
  0.254     0
  0.264     0
  0.274    -1
  0.284     0
  0.294     0
  0.304     9
  0.314    48
  0.324    33
  0.334    42
  0.344    51
  0.354    29
  0.364    28
  0.374    33
  0.384    31
  0.394    40
  0.404    42
  0.414    37
  0.424    34
  0.434    32
  0.444    39
  0.454    35
  0.464    32
  0.474    46
  0.484    39
  0.494    33
 0.5041    32
 0.5141    31
 0.5241    28
 0.5341    30
 0.5441    27
 0.5541    34
 0.5641    38
 0.5741    36
 0.5841    33
 0.5941    19
 0.6041    35
 0.6141    23
 0.6241    36
 0.6341    24
 0.6441    26
 0.6541    26
 0.6641    37
 0.6741    24
 0.6841    24
 0.6941    26
 0.7041    33
 0.7141    18
 0.7241    30
 0.7341    25
 0.7441    38
 0.7541    25
 0.7641    26
 0.7741    20
 0.7841    30
 0.7941    22
 0.8041    30
 0.8141    22
 0.8241    17
 0.8341    26
 0.8441    22
 0.8541    23
 0.8641    24
 0.8741    35
 0.8841    27
 0.8941    18
 0.9041    18
 0.9141    16
 0.9241    21
 0.9341    33
 0.9441    22
 0.9541    24
 0.9641    21
 0.9741    28
 0.9841    16
 0.9941    21
 1.0041    29
 1.0141    24
 1.0241    28
 1.0341    20
 1.0441    21
 1.0541    15
 1.0641    24
 1.0741    24
 1.0841    26
 1.0941    17
 1.1041    25
 1.1141    19
 1.1241    25
 1.1341    20
 1.1441    25
 1.1541    21
 1.1641    15
 1.1741    23
 1.1841    26
 1.1941    30
 1.2041    28
 1.2141    27
 1.2241    30
 1.2341    23
 1.2441    17
 1.2541    17
 1.2641    18
 1.2741    16
 1.2841    21
 1.2941    18
 1.3041    12
 1.3141    15
 1.3241    21
 1.3341    20
 1.3441    16
 1.3541    17
 1.3641    15
 1.3741    14
 1.3841    18
 1.3941    19
 1.4041    23
 1.4141    17
 1.4241    12
 1.4341    15
 1.4441    19
 1.4541    17
 1.4641    15
 1.4741    13
 1.4841    14
 1.4941    14
 1.5042    11
 1.5142    18
 1.5242    17
 1.5342     9
 1.5442    14
 1.5542    12
 1.5642    12
 1.5742    12
 1.5842    17
 1.5942    16
 1.6042    15
 1.6142     8
 1.6242    12
 1.6342     6
 1.6442     8
 1.6542    13
 1.6642     8
 1.6742     8
 1.6842    11
 1.6942     9
 1.7042    10
 1.7142     8
 1.7242    11
 1.7342    15
 1.7442     8
 1.7542    12
 1.7642     6
 1.7742    13
 1.7842    12
 1.7942    12
 1.8042    13
 1.8142    11
 1.8242    10
 1.8342    12
 1.8442     9
 1.8542    12
 1.8642    13
 1.8742     9
 1.8842    15
 1.8942    17
 1.9042    10
 1.9142    14
 1.9242    19
 1.9342    14
 1.9442    16
 1.9542    19
 1.9642    30
 1.9742    21
 1.9842    31
 1.9942    26
 2.0042    31
 2.0142    29
 2.0242    24
 2.0342    31
 2.0442    24
 2.0542    21
 2.0642    12
 2.0742    19
 2.0842    19
 2.0942    19
 2.1042    16
 2.1142    12
 2.1242    13
 2.1342    10
 2.1442    13
 2.1542    10
 2.1642    11
 2.1742    10
 2.1842     8
 2.1942     8
 2.2042    15
 2.2142    18
 2.2242    23
 2.2342    21
 2.2442    26
 2.2542    31
 2.2642    43
 2.2742    45
 2.2842    52
 2.2942    49
 2.3042    48
 2.3142    57
 2.3242    64
 2.3342    56
 2.3442    42
 2.3542    33
 2.3642    35
 2.3742    38
 2.3842    30
 2.3942    21
 2.4042    20
 2.4142    19
 2.4242    14
 2.4342     7
 2.4442     9
 2.4542    10
 2.4642    12
 2.4742    14
 2.4842    12
 2.4942     8
 2.5043    14
 2.5143     8
 2.5243     8
 2.5343    10
 2.5443    10
 2.5543     8
 2.5643    11
 2.5743    12
 2.5843    15
 2.5943    17
 2.6043    20
 2.6143    20
 2.6243    23
 2.6343    26
 2.6443    26
 2.6543    24
 2.6643    19
 2.6743    18
 2.6843    21
 2.6943    25
 2.7043    28
 2.7143    27
 2.7243    27
 2.7343    22
 2.7443    21
 2.7543    38
 2.7643    29
 2.7743    17
 2.7843    30
 2.7943    19
 2.8043    24
 2.8143    36
 2.8243    27
 2.8343    42
 2.8443    57
 2.8543    66
 2.8643    96
 2.8743   103
 2.8843   143
 2.8943   192
 2.9043   267
 2.9143   300
 2.9243   337
 2.9343   384
 2.9443   396
 2.9543   439
 2.9643   425
 2.9743   445
 2.9843   401
 2.9943   365
 3.0043   315
 3.0143   275
 3.0243   219
 3.0343   162
 3.0443   120
 3.0543   102
 3.0643    77
 3.0743    57
 3.0843    49
 3.0943    36
 3.1043    31
 3.1143    35
 3.1243    39
 3.1343    33
 3.1443    41
 3.1543    54
 3.1643    55
 3.1743    60
 3.1843    63
 3.1943    69
 3.2043    59
 3.2143    67
 3.2243    86
 3.2343    72
 3.2443    70
 3.2543    88
 3.2643    92
 3.2743   102
 3.2843   106
 3.2943   125
 3.3043   135
 3.3143   145
 3.3243   134
 3.3343   136
 3.3443   137
 3.3543   157
 3.3643   156
 3.3743   190
 3.3843   201
 3.3943   215
 3.4043   251
 3.4143   309
 3.4243   344
 3.4343   362
 3.4443   379
 3.4543   380
 3.4643   372
 3.4743   325
 3.4843   288
 3.4943   252
 3.5044   199
 3.5144   190
 3.5244   185
 3.5344   157
 3.5444   142
 3.5544   161
 3.5644   227
 3.5744   329
 3.5844   409
 3.5944   564
 3.6044   822
 3.6144  1106
 3.6244  1461
 3.6344  1766
 3.6444  2162
 3.6544  2552
 3.6644  2911
 3.6744  3208
 3.6844  3457
 3.6944  3392
 3.7044  3429
 3.7144  3206
 3.7244  2967
 3.7344  2556
 3.7444  2269
 3.7544  1797
 3.7644  1502
 3.7744  1138
 3.7844   874
 3.7944   637
 3.8044   456
 3.8144   331
 3.8244   228
 3.8344   161
 3.8444   131
 3.8544   118
 3.8644   108
 3.8744   103
 3.8844   110
 3.8944   118
 3.9044   146
 3.9144   169
 3.9244   175
 3.9344   233
 3.9444   256
 3.9544   298
 3.9644   361
 3.9744   415
 3.9844   447
 3.9944   481
 4.0044   496
 4.0144   503
 4.0244   493
 4.0344   484
 4.0444   484
 4.0544   448
 4.0644   343
 4.0744   322
 4.0844   278
 4.0944   210
 4.1044   161
 4.1144   128
 4.1244   109
 4.1344    93
 4.1444    65
 4.1544    52
 4.1644    42
 4.1744    43
 4.1844    37
 4.1944    32
 4.2044    26
 4.2144    25
 4.2244    16
 4.2344    21
 4.2444    21
 4.2544    25
 4.2644    22
 4.2744    19
 4.2844    20
 4.2944    18
 4.3044    23
 4.3144    37
 4.3244    45
 4.3344    37
 4.3444    47
 4.3544    63
 4.3644    78
 4.3744   105
 4.3844   147
 4.3944   204
 4.4044   269
 4.4144   390
 4.4244   533
 4.4344   671
 4.4444   807
 4.4544   970
 4.4644  1190
 4.4744  1415
 4.4844  1510
 4.4944  1613
 4.5045  1706
 4.5145  1778
 4.5245  1816
 4.5345  1630
 4.5445  1497
 4.5545  1390
 4.5645  1219
 4.5745  1007
 4.5845   829
 4.5945   637
 4.6045   485
 4.6145   392
 4.6245   282
 4.6345   201
 4.6445   141
 4.6545    91
 4.6645    62
 4.6745    35
 4.6845    29
 4.6945    33
 4.7045    24
 4.7145    28
 4.7245    20
 4.7345    24
 4.7445    23
 4.7545    33
 4.7645    30
 4.7745    33
 4.7845    36
 4.7945    39
 4.8045    40
 4.8145    49
 4.8245    73
 4.8345    85
 4.8445    87
 4.8545   125
 4.8645   149
 4.8745   188
 4.8845   215
 4.8945   258
 4.9045   268
 4.9145   283
 4.9245   304
 4.9345   307
 4.9445   329
 4.9545   326
 4.9645   294
 4.9745   282
 4.9845   253
 4.9945   208
 5.0045   160
 5.0145   137
 5.0245   120
 5.0345    99
 5.0445    76
 5.0545    59
 5.0645    50
 5.0745    44
 5.0845    29
 5.0945    26
 5.1045    22
 5.1145    24
 5.1245    20
 5.1345    24
 5.1445    28
 5.1545    23
 5.1645    23
 5.1745    25
 5.1845    22
 5.1945    16
 5.2045    18
 5.2145    19
 5.2245    26
 5.2345    25
 5.2445    21
 5.2545    20
 5.2645    13
 5.2745    18
 5.2845    17
 5.2945    13
 5.3045    19
 5.3145    22
 5.3245    23
 5.3345    30
 5.3445    25
 5.3545    27
 5.3645    28
 5.3745    29
 5.3845    31
 5.3945    27
 5.4045    24
 5.4145    31
 5.4245    35
 5.4345    32
 5.4445    35
 5.4545    34
 5.4645    29
 5.4745    21
 5.4845    25
 5.4945    27
 5.5046    27
 5.5146    28
 5.5246    30
 5.5346    29
 5.5446    33
 5.5546    32
 5.5646    31
 5.5746    27
 5.5846    31
 5.5946    34
 5.6046    32
 5.6146    31
 5.6246    30
 5.6346    28
 5.6446    31
 5.6546    33
 5.6646    30
 5.6746    30
 5.6846    34
 5.6946    38
 5.7046    38
 5.7146    31
 5.7246    29
 5.7346    27
 5.7446    29
 5.7546    40
 5.7646    37
 5.7746    39
 5.7846    38
 5.7946    37
 5.8046    36
 5.8146    42
 5.8246    44
 5.8346    45
 5.8446    45
 5.8546    42
 5.8646    40
 5.8746    45
 5.8846    47
 5.8946    48
 5.9046    47
 5.9146    47
 5.9246    63
 5.9346    58
 5.9446    47
 5.9546    54
 5.9646    54
 5.9746    41
 5.9846    36
 5.9946    40
 6.0046    41
 6.0146    42
 6.0246    49
 6.0346    45
 6.0446    53
 6.0546    50
 6.0646    45
 6.0746    47
 6.0846    56
 6.0946    48
 6.1046    42
 6.1146    50
 6.1246    50
 6.1346    46
 6.1446    50
 6.1546    63
 6.1646    57
 6.1746    52
 6.1846    53
 6.1946    43
 6.2046    44
 6.2146    47
 6.2246    50
 6.2346    52
 6.2446    56
 6.2546    67
 6.2646    80
 6.2746    77
 6.2846    87
 6.2946    98
 6.3046   105
 6.3146   136
 6.3246   152
 6.3346   196
 6.3446   208
 6.3546   234
 6.3646   267
 6.3746   281
 6.3846   273
 6.3946   307
 6.4046   326
 6.4146   297
 6.4246   304
 6.4346   299
 6.4446   270
 6.4546   271
 6.4646   225
 6.4746   217
 6.4846   189
 6.4946   162
 6.5047   125
 6.5147   122
 6.5247   102
 6.5347    96
 6.5447    74
 6.5547    67
 6.5647    81
 6.5747    62
 6.5847    72
 6.5947    67
 6.6047    68
 6.6147    55
 6.6247    56
 6.6347    62
 6.6447    57
 6.6547    60
 6.6647    55
 6.6747    70
 6.6847    75
 6.6947    64
 6.7047    73
 6.7147    67
 6.7247    67
 6.7347    70
 6.7447    85
 6.7547    69
 6.7647    63
 6.7747    74
 6.7847    61
 6.7947    66
 6.8047    61
 6.8147    64
 6.8247    68
 6.8347    73
 6.8447    70
 6.8547    70
 6.8647    77
 6.8747    75
 6.8847    73
 6.8947    68
 6.9047    72
 6.9147    75
 6.9247    77
 6.9347    71
 6.9447    75
 6.9547    85
 6.9647    95
 6.9747    93
 6.9847    88
 6.9947   105
 7.0047   104
 7.0147    98
 7.0247   115
 7.0347    95
 7.0447   118
 7.0547   140
 7.0647   104
 7.0747   109
 7.0847   107
 7.0947   133
 7.1047   126
 7.1147   114
 7.1247   117
 7.1347   112
 7.1447   109
 7.1547   113
 7.1647    98
 7.1747   103
 7.1847   108
 7.1947    90
 7.2047    88
 7.2147    82
 7.2247    88
 7.2347    91
 7.2447    81
 7.2547    84
 7.2647    89
 7.2747    93
 7.2847    96
 7.2947   113
 7.3047   117
 7.3147   108
 7.3247   109
 7.3347   106
 7.3447    91
 7.3547    83
 7.3647    85
 7.3747   101
 7.3847   106
 7.3947   105
 7.4047   103
 7.4147   107
 7.4247   101
 7.4347    99
 7.4447    94
 7.4547    97
 7.4647   110
 7.4747   119
 7.4847   113
 7.4947   113
 7.5048   108
 7.5148   109
 7.5248   111
 7.5348   113
 7.5448   130
 7.5548   132
 7.5648   109
 7.5748   107
 7.5848   126
 7.5948   118
 7.6048   116
 7.6148   102
 7.6248   109
 7.6348   114
 7.6448   119
 7.6548   119
 7.6648   113
 7.6748   107
 7.6848   107
 7.6948   113
 7.7048   121
 7.7148   115
 7.7248   119
 7.7348   113
 7.7448   116
 7.7548   135
 7.7648   130
 7.7748   115
 7.7848   113
 7.7948   119
 7.8048   143
 7.8148   139
 7.8248   122
 7.8348   126
 7.8448   145
 7.8548   139
 7.8648   138
 7.8748   126
 7.8848   140
 7.8948   139
 7.9048   150
 7.9148   153
 7.9248   137
 7.9348   140
 7.9448   146
 7.9548   144
 7.9648   151
 7.9748   151
 7.9848   158
 7.9948   166
 8.0048   160
 8.0148   145
 8.0248   137
 8.0348   149
 8.0448   154
 8.0548   157
 8.0648   164
 8.0748   172
 8.0848   163
 8.0948   159
 8.1048   166
 8.1148   165
 8.1248   159
 8.1348   149
 8.1448   157
 8.1548   153
 8.1648   142
 8.1748   146
 8.1848   162
 8.1948   176
 8.2048   163
 8.2148   160
 8.2248   164
 8.2348   167
 8.2448   169
 8.2548   163
 8.2648   168
 8.2748   167
 8.2848   162
 8.2948   164
 8.3048   174
 8.3148   178
 8.3248   167
 8.3348   170
 8.3448   187
 8.3548   172
 8.3648   163
 8.3748   176
 8.3848   181
 8.3948   173
 8.4048   194
 8.4148   185
 8.4248   170
 8.4348   181
 8.4448   178
 8.4548   188
 8.4648   188
 8.4748   186
 8.4848   189
 8.4948   185
 8.5049   173
 8.5149   185
 8.5249   197
 8.5349   197
 8.5449   191
 8.5549   196
 8.5649   205
 8.5749   194
 8.5849   186
 8.5949   196
 8.6049   213
 8.6149   224
 8.6249   227
 8.6349   219
 8.6449   213
 8.6549   220
 8.6649   220
 8.6749   213
 8.6849   219
 8.6949   218
 8.7049   228
 8.7149   234
 8.7249   216
 8.7349   225
 8.7449   238
 8.7549   229
 8.7649   227
 8.7749   227
 8.7849   220
 8.7949   225
 8.8049   223
 8.8149   216
 8.8249   213
 8.8349   220
 8.8449   227
 8.8549   220
 8.8649   222
 8.8749   230
 8.8849   232
 8.8949   249
 8.9049   241
 8.9149   232
 8.9249   227
 8.9349   216
 8.9449   224
 8.9549   235
 8.9649   244
 8.9749   254
 8.9849   243
 8.9949   249
 9.0049   273
 9.0149   267
 9.0249   238
 9.0349   240
 9.0449   246
 9.0549   236
 9.0649   239
 9.0749   249
 9.0849   249
 9.0949   253
 9.1049   268
 9.1149   261
 9.1249   265
 9.1349   255
 9.1449   248
 9.1549   263
 9.1649   252
 9.1749   258
 9.1849   259
 9.1949   252
 9.2049   266
 9.2149   275
 9.2249   286
 9.2349   269
 9.2449   257
 9.2549   265
 9.2649   268
 9.2749   275
 9.2849   276
 9.2949   265
 9.3049   253
 9.3149   266
 9.3249   284
 9.3349   271
 9.3449   278
 9.3549   284
 9.3649   254
 9.3749   255
 9.3849   267
 9.3949   278
 9.4049   294
 9.4149   305
 9.4249   298
 9.4349   276
 9.4449   279
 9.4549   265
 9.4649   273
 9.4749   304
 9.4849   295
 9.4949   275
  9.505   307
  9.515   305
  9.525   291
  9.535   284
  9.545   310
  9.555   307
  9.565   285
  9.575   298
  9.585   301
  9.595   284
  9.605   289
  9.615   277
  9.625   295
  9.635   313
  9.645   317
  9.655   322
  9.665   317
  9.675   313
  9.685   305
  9.695   314
  9.705   323
  9.715   300
  9.725   303
  9.735   299
  9.745   303
  9.755   301
  9.765   326
  9.775   329
  9.785   336
  9.795   333
  9.805   312
  9.815   313
  9.825   318
  9.835   291
  9.845   309
  9.855   334
  9.865   320
  9.875   315
  9.885   303
  9.895   309
  9.905   329
  9.915   347
  9.925   342
  9.935   347
  9.945   334
  9.955   350
  9.965   354
  9.975   328
  9.985   340
  9.995   329
 10.005   333
 10.015   335
 10.025   333
 10.035   337
 10.045   349
 10.055   356
 10.065   329
 10.075   316
 10.085   335
 10.095   345
 10.105   294
 10.115   329
 10.125   358
 10.135   356
 10.145   372
 10.155   367
 10.165   359
 10.175   338
 10.185   341
 10.195   351
 10.205   357
 10.215   368
 10.225   380
 10.235   361
 10.245   352
 10.255   359
 10.265   383
 10.275   376
 10.285   370
 10.295   393
 10.305   352
 10.315   362
 10.325   363
 10.335   378
 10.345   396
 10.355   395
 10.365   346
 10.375   359
 10.385   375
 10.395   368
 10.405   351
 10.415   406
 10.425   393
 10.435   388
 10.445   382
 10.455   367
 10.465   366
 10.475   410
 10.485   416
 10.495   373
10.5051   369
10.5151   381
10.5251   384
10.5351   376
10.5451   380
10.5551   379
10.5651   402
10.5751   389
10.5851   387
10.5951   378
10.6051   375
10.6151   400
10.6251   400
10.6351   403
10.6451   387
10.6551   402
10.6651   439
10.6751   408
10.6851   404
10.6951   436
10.7051   398
10.7151   389
10.7251   377
10.7351   423
10.7451   409
10.7551   398
10.7651   408
10.7751   410
10.7851   404
10.7951   398
10.8051   399
10.8151   419
10.8251   436
10.8351   419
10.8451   415
10.8551   412
10.8651   408
10.8751   372
10.8851   406
10.8951   414
10.9051   422
10.9151   445
10.9251   396
10.9351   388
10.9451   412
10.9551   427
10.9651   447
10.9751   419
10.9851   430
10.9951   417
11.0051   418
11.0151   429
11.0251   426
11.0351   384
11.0451   434
11.0551   443
11.0651   401
11.0751   421
11.0851   406
11.0951   440
11.1051   451
11.1151   424
11.1251   431
11.1351   442
11.1451   447
11.1551   463
11.1651   426
11.1751   431
11.1851   459
11.1951   476
11.2051   443
11.2151   459
11.2251   431
11.2351   427
11.2451   434
11.2551   442
11.2651   425
11.2751   450
11.2851   486
11.2951   431
11.3051   434
11.3151   431
11.3251   430
11.3351   428
11.3451   423
11.3551   462
11.3651   432
11.3751   435
11.3851   445
11.3951   432
11.4051   432
11.4151   438
11.4251   433
11.4351   450
11.4451   476
11.4551   473
11.4651   414
11.4751   443
11.4851   446
11.4951   447
11.5052   457
11.5152   448
11.5252   433
11.5352   454
11.5452   434
11.5552   437
11.5652   450
11.5752   456
11.5852   426
11.5952   474
11.6052   434
11.6152   456
11.6252   437
11.6352   415
11.6452   405
11.6552   431
11.6652   436
11.6752   429
11.6852   436
11.6952   411
11.7052   429
11.7152   464
11.7252   426
11.7352   459
11.7452   442
11.7552   467
11.7652   431
11.7752   408
11.7852   453
11.7952   444
11.8052   426
11.8152   448
11.8252   416
11.8352   486
11.8452   443
11.8552   406
11.8652   458
11.8752   432
11.8852   447
11.8952   472
11.9052   441
11.9152   446
11.9252   402
11.9352   475
11.9452   453
11.9552   472
11.9652   430
11.9752   461
11.9852   478
11.9952   449
12.0052   446
12.0152   465
12.0252   448
12.0352   439
12.0452   460
12.0552   490
12.0652   488
12.0752   459
12.0852   414
12.0952   443
12.1052   486
12.1152   441
12.1252   461
12.1352   444
12.1452   429
12.1552   479
12.1652   476
12.1752   450
12.1852   469
12.1952   467
12.2052   429
12.2152   475
12.2252   478
12.2352   443
12.2452   442
12.2552   434
12.2652   431
12.2752   440
12.2852   460
12.2952   448
12.3052   484
12.3152   424
12.3252   449
12.3352   467
12.3452   430
12.3552   472
12.3652   426
12.3752   463
12.3852   437
12.3952   440
12.4052   486
12.4152   438
12.4252   430
12.4352   447
12.4452   427
12.4552   414
12.4652   422
12.4752   424
12.4852   476
12.4952   437
12.5053   462
12.5153   436
12.5253   462
12.5353   411
12.5453   510
12.5553   428
12.5653   440
12.5753   436
12.5853   443
12.5953   453
12.6053   413
12.6153   470
12.6253   500
12.6353   436
12.6453   436
12.6553   453
12.6653   474
12.6753   456
12.6853   433
12.6953   464
12.7053   433
12.7153   451
12.7253   452
12.7353   466
12.7453   439
12.7553   414
12.7653   434
12.7753   465
12.7853   482
12.7953   450
12.8053   442
12.8153   449
12.8253   459
12.8353   437
12.8453   468
12.8553   432
12.8653   416
12.8753   431
12.8853   441
12.8953   446
12.9053   455
12.9153   460
12.9253   476
12.9353   448
12.9453   439
12.9553   398
12.9653   411
12.9753   452
12.9853   434
12.9953   440
13.0053   449
13.0153   472
13.0253   453
13.0353   481
13.0453   403
13.0553   440
13.0653   461
13.0753   432
13.0853   422
13.0953   466
13.1053   416
13.1153   433
13.1253   444
13.1353   449
13.1453   446
13.1553   400
13.1653   451
13.1753   407
13.1853   425
13.1953   448
13.2053   446
13.2153   426
13.2253   476
13.2353   415
13.2453   458
13.2553   446
13.2653   447
13.2753   429
13.2853   443
13.2953   457
13.3053   438
13.3153   421
13.3253   431
13.3353   416
13.3453   393
13.3553   473
13.3653   416
13.3753   448
13.3853   411
13.3953   458
13.4053   452
13.4153   419
13.4253   411
13.4353   432
13.4453   447
13.4553   434
13.4653   423
13.4753   413
13.4853   440
13.4953   397
13.5054   422
13.5154   407
13.5254   444
13.5354   402
13.5454   451
13.5554   433
13.5654   401
13.5754   409
13.5854   456
13.5954   409
13.6054   425
13.6154   390
13.6254   383
13.6354   405
13.6454   413
13.6554   420
13.6654   407
13.6754   412
13.6854   362
13.6954   426
13.7054   413
13.7154   404
13.7254   422
13.7354   405
13.7454   421
13.7554   381
13.7654   407
13.7754   380
13.7854   435
13.7954   370
13.8054   434
13.8154   394
13.8254   404
13.8354   414
13.8454   381
13.8554   394
13.8654   425
13.8754   415
13.8854   403
13.8954   377
13.9054   406
13.9154   365
13.9254   418
13.9354   418
13.9454   392
13.9554   385
13.9654   368
13.9754   393
13.9854   393
13.9954   437
14.0054   411
14.0154   424
14.0254   409
14.0354   450
14.0454   396
14.0554   394
14.0654   385
14.0754   427
14.0854   399
14.0954   423
14.1054   440
14.1154   393
14.1254   408
14.1354   452
14.1454   422
14.1554   421
14.1654   436
14.1754   381
14.1854   430
14.1954   450
14.2054   405
14.2154   427
14.2254   412
14.2354   392
14.2454   393
14.2554   420
14.2654   414
14.2754   367
14.2854   390
14.2954   401
14.3054   396
14.3154   415
14.3254   354
14.3354   390
14.3454   370
14.3554   407
14.3654   401
14.3754   366
14.3854   371
14.3954   388
14.4054   383
14.4154   358
14.4254   375
14.4354   380
14.4454   365
14.4554   343
14.4654   362
14.4754   366
14.4854   374
14.4954   364
14.5055   349
14.5155   367
14.5255   366
14.5355   376
14.5455   344
14.5555   351
14.5655   336
14.5755   340
14.5855   368
14.5955   380
14.6055   376
14.6155   366
14.6255   346
14.6355   362
14.6455   356
14.6555   360
14.6655   370
14.6755   333
14.6855   343
14.6955   348
14.7055   381
14.7155   371
14.7255   361
14.7355   349
14.7455   348
14.7555   355
14.7655   343
14.7755   334
14.7855   340
14.7955   337
14.8055   346
14.8155   354
14.8255   333
14.8355   325
14.8455   326
14.8555   327
14.8655   314
14.8755   337
14.8855   334
14.8955   317
14.9055   328
14.9155   304
14.9255   316
14.9355   313
14.9455   327
14.9555   321
14.9655   330
14.9755   328
14.9855   303
14.9955   319
15.0055   323
15.0155   323
15.0255   326
15.0355   345
15.0455   317
15.0555   348
15.0655   318
15.0755   330
15.0855   355
15.0955   327
15.1055   330
15.1155   302
15.1255   311
15.1355   333
15.1455   322
15.1555   329
15.1655   321
15.1755   309
15.1855   319
15.1955   295
15.2055   321
15.2155   300
15.2255   316
15.2355   315
15.2455   303
15.2555   321
15.2655   308
15.2755   326
15.2855   333
15.2955   301
15.3055   339
15.3155   309
15.3255   308
15.3355   308
15.3455   321
15.3555   304
15.3655   300
15.3755   287
15.3855   282
15.3955   280
15.4055   298
15.4155   308
15.4255   311
15.4355   302
15.4455   283
15.4555   269
15.4655   300
15.4755   305
15.4855   303
15.4955   304
15.5056   288
15.5156   288
15.5256   304
15.5356   304
15.5456   306
15.5556   282
15.5656   277
15.5756   282
15.5856   313
15.5956   312
15.6056   315
15.6156   314
15.6256   274
15.6356   309
15.6456   299
15.6556   274
15.6656   279
15.6756   291
15.6856   293
15.6956   283
15.7056   319
15.7156   305
15.7256   323
15.7356   320
15.7456   293
15.7556   318
15.7656   329
15.7756   315
15.7856   296
15.7956   307
15.8056   298
15.8156   314
15.8256   305
15.8356   298
15.8456   290
15.8556   310
15.8656   267
15.8756   253
15.8856   273
15.8956   284
15.9056   274
15.9156   276
15.9256   288
15.9356   280
15.9456   258
15.9556   259
15.9656   290
15.9756   268
15.9856   266
15.9956   257
16.0056   270
16.0156   268
16.0256   277
16.0356   302
16.0456   277
16.0556   263
16.0656   258
16.0756   254
16.0856   253
16.0956   267
16.1056   241
16.1156   238
16.1256   246
16.1356   250
16.1456   258
16.1556   262
16.1656   233
16.1756   260
16.1856   259
16.1956   251
16.2056   258
16.2156   267
16.2256   258
16.2356   240
16.2456   238
16.2556   261
16.2656   237
16.2756   240
16.2856   248
16.2956   252
16.3056   257
16.3156   252
16.3256   258
16.3356   265
16.3456   239
16.3556   249
16.3656   248
16.3756   256
16.3856   259
16.3956   254
16.4056   250
16.4156   245
16.4256   233
16.4356   231
16.4456   261
16.4556   250
16.4656   238
16.4756   227
16.4856   230
16.4956   243
16.5057   240
16.5157   236
16.5257   240
16.5357   238
16.5457   232
16.5557   229
16.5657   241
16.5757   243
16.5857   246
16.5957   222
16.6057   223
16.6157   232
16.6257   239
16.6357   249
16.6457   238
16.6557   211
16.6657   236
16.6757   237
16.6857   252
16.6957   242
16.7057   227
16.7157   246
16.7257   245
16.7357   227
16.7457   220
16.7557   218
16.7657   219
16.7757   214
16.7857   227
16.7957   225
16.8057   225
16.8157   221
16.8257   235
16.8357   240
16.8457   231
16.8557   217
16.8657   222
16.8757   208
16.8857   212
16.8957   225
16.9057   220
16.9157   227
16.9257   243
16.9357   223
16.9457   239
16.9557   229
16.9657   213
16.9757   235
16.9857   223
16.9957   216
17.0057   224
17.0157   211
17.0257   213
17.0357   220
17.0457   233
17.0557   220
17.0657   200
17.0757   208
17.0857   220
17.0957   217
17.1057   218
17.1157   205
17.1257   210
17.1357   205
17.1457   194
17.1557   204
17.1657   210
17.1757   216
17.1857   222
17.1957   222
17.2057   203
17.2157   216
17.2257   222
17.2357   209
17.2457   212
17.2557   221
17.2657   215
17.2757   199
17.2857   224
17.2957   228
17.3057   201
17.3157   211
17.3257   233
17.3357   212
17.3457   204
17.3557   214
17.3657   215
17.3757   209
17.3857   202
17.3957   213
17.4057   225
17.4157   229
17.4257   233
17.4357   219
17.4457   208
17.4557   200
17.4657   204
17.4757   211
17.4857   213
17.4957   219
17.5058   213
17.5158   217
17.5258   212
17.5358   206
17.5458   222
17.5558   231
17.5658   212
17.5758   203
17.5858   218
17.5958   227
17.6058   205
17.6158   220
17.6258   245
17.6358   231
17.6458   226
17.6558   204
17.6658   218
17.6758   220
17.6858   200
17.6958   201
17.7058   216
17.7158   216
17.7258   206
17.7358   221
17.7458   227
17.7558   220
17.7658   222
17.7758   211
17.7858   208
17.7958   227
17.8058   234
17.8158   224
17.8258   227
17.8358   226
17.8458   228
17.8558   239
17.8658   232
17.8758   223
17.8858   217
17.8958   226
17.9058   227
17.9158   228
17.9258   214
17.9358   229
17.9458   248
17.9558   237
17.9658   233
17.9758   236
17.9858   247
17.9958   248
18.0058   255
18.0158   245
18.0258   247
18.0358   241
18.0458   240
18.0558   249
18.0658   265
18.0758   277
18.0858   278
18.0958   282
18.1058   290
18.1158   265
18.1258   261
18.1358   282
18.1458   294
18.1558   305
18.1658   300
18.1758   292
18.1858   294
18.1958   298
18.2058   314
18.2158   333
18.2258   327
18.2358   323
18.2458   344
18.2558   340
18.2658   341
18.2758   359
18.2858   361
18.2958   360
18.3058   372
18.3158   398
18.3258   404
18.3358   416
18.3458   442
18.3558   439
18.3658   444
18.3758   466
18.3858   489
18.3958   492
18.4058   526
18.4158   563
18.4258   571
18.4358   583
18.4458   603
18.4558   613
18.4658   623
18.4758   648
18.4858   649
18.4958   680
18.5059   720
18.5159   742
18.5259   773
18.5359   788
18.5459   824
18.5559   842
18.5659   872
18.5759   910
18.5859   949
18.5959   976
18.6059   960
18.6159   961
18.6259   985
18.6359   998
18.6459  1053
18.6559  1081
18.6659  1052
18.6759  1074
18.6859  1108
18.6959  1118
18.7059  1123
18.7159  1153
18.7259  1173
18.7359  1145
18.7459  1105
18.7559  1129
18.7659  1158
18.7759  1145
18.7859  1129
18.7959  1100
18.8059  1106
18.8159  1148
18.8259  1126
18.8359  1092
18.8459  1060
18.8559  1059
18.8659  1074
18.8759  1084
18.8859  1073
18.8959  1057
18.9059  1056
18.9159  1008
18.9259   981
18.9359   969
18.9459   960
18.9559   922
18.9659   891
18.9759   864
18.9859   839
18.9959   822
19.0059   810
19.0159   791
19.0259   744
19.0359   730
19.0459   710
19.0559   679
19.0659   661
19.0759   632
19.0859   591
19.0959   574
19.1059   557
19.1159   531
19.1259   494
19.1359   484
19.1459   484
19.1559   462
19.1659   451
19.1759   431
19.1859   422
19.1959   406
19.2059   409
19.2159   398
19.2259   377
19.2359   343
19.2459   348
19.2559   332
19.2659   320
19.2759   333
19.2859   316
19.2959   285
19.3059   280
19.3159   261
19.3259   283
19.3359   283
19.3459   260
19.3559   257
19.3659   252
19.3759   239
19.3859   243
19.3959   240
19.4059   238
19.4159   230
19.4259   225
19.4359   232
19.4459   221
19.4559   216
19.4659   200
19.4759   198
19.4859   208
19.4959   214
 19.506   208
 19.516   198
 19.526   197
 19.536   178
 19.546   186
 19.556   191
 19.566   177
 19.576   177
 19.586   180
 19.596   171
 19.606   170
 19.616   166
 19.626   167
 19.636   161
 19.646   155
 19.656   166
 19.666   168
 19.676   159
 19.686   141
 19.696   140
 19.706   151
 19.716   156
 19.726   148
 19.736   132
 19.746   137
 19.756   135
 19.766   134
 19.776   152
 19.786   141
 19.796   120
 19.806   124
 19.816   137
 19.826   127
 19.836   123
 19.846   143
 19.856   145
 19.866   136
 19.876   128
 19.886   127
 19.896   131
 19.906   141
 19.916   141
 19.926   129
 19.936   140
 19.946   143
 19.956   156
 19.966   139
 19.976   137
 19.986   156
 19.996   181
 20.006   176
 20.016   159
 20.026   166
 20.036   194
 20.046   205
 20.056   211
 20.066   213
 20.076   217
 20.086   250
 20.096   240
 20.106   240
 20.116   240
 20.126   236
 20.136   239
 20.146   260
 20.156   272
 20.166   286
 20.176   301
 20.186   294
 20.196   285
 20.206   282
 20.216   289
 20.226   279
 20.236   256
 20.246   273
 20.256   261
 20.266   249
 20.276   259
 20.286   236
 20.296   219
 20.306   223
 20.316   199
 20.326   195
 20.336   202
 20.346   177
 20.356   175
 20.366   154
 20.376   138
 20.386   144
 20.396   133
 20.406   130
 20.416   127
 20.426   125
 20.436   120
 20.446   112
 20.456   107
 20.466   114
 20.476   109
 20.486   112
 20.496   115
20.5061   105
20.5161   100
20.5261   100
20.5361   112
20.5461   119
20.5561   120
20.5661   108
20.5761   112
20.5861   118
20.5961   118
20.6061   130
20.6161   124
20.6261   129
20.6361   122
20.6461   130
20.6561   137
20.6661   127
20.6761   129
20.6861   132
20.6961   133
20.7061   134
20.7161   151
20.7261   149
20.7361   147
20.7461   149
20.7561   168
20.7661   170
20.7761   169
20.7861   162
20.7961   153
20.8061   155
20.8161   168
20.8261   186
20.8361   170
20.8461   175
20.8561   182
20.8661   187
20.8761   163
20.8861   175
20.8961   180
20.9061   173
20.9161   178
20.9261   174
20.9361   180
20.9461   196
20.9561   192
20.9661   198
20.9761   177
20.9861   165
20.9961   169
21.0061   162
21.0161   154
21.0261   165
21.0361   171
21.0461   161
21.0561   160
21.0661   155
21.0761   164
21.0861   171
21.0961   143
21.1061   147
21.1161   165
21.1261   147
21.1361   144
21.1461   156
21.1561   149
21.1661   134
21.1761   144
21.1861   142
21.1961   134
21.2061   140
21.2161   141
21.2261   135
21.2361   139
21.2461   142
21.2561   140
21.2661   127
21.2761   127
21.2861   127
21.2961   117
21.3061   109
21.3161   117
21.3261   110
21.3361   103
21.3461    90
21.3561    90
21.3661    95
21.3761    91
21.3861    93
21.3961   100
21.4061    92
21.4161    82
21.4261    80
21.4361    86
21.4461   103
21.4561    94
21.4661    79
21.4761    72
21.4861    68
21.4961    77
21.5062    88
21.5162    82
21.5262    65
21.5362    77
21.5462    80
21.5562    70
21.5662    66
21.5762    72
21.5862    76
21.5962    64
21.6062    63
21.6162    58
21.6262    66
21.6362    66
21.6462    63
21.6562    68
21.6662    51
21.6762    48
21.6862    54
21.6962    60
21.7062    58
21.7162    48
21.7262    54
21.7362    52
21.7462    54
21.7562    56
21.7662    54
21.7762    54
21.7862    34
21.7962    45
21.8062    46
21.8162    49
21.8262    50
21.8362    52
21.8462    61
21.8562    57
21.8662    49
21.8762    46
21.8862    37
21.8962    46
21.9062    43
21.9162    48
21.9262    37
21.9362    32
21.9462    40
21.9562    40
21.9662    40
21.9762    40
21.9862    39
21.9962    46
22.0062    51
22.0162    42
22.0262    39
22.0362    38
22.0462    40
22.0562    39
22.0662    39
22.0762    33
22.0862    39
22.0962    31
22.1062    42
22.1162    43
22.1262    40
22.1362    35
22.1462    32
22.1562    42
22.1662    36
22.1762    30
22.1862    25
22.1962    32
22.2062    43
22.2162    39
22.2262    25
22.2362    37
22.2462    34
22.2562    27
22.2662    26
22.2762    28
22.2862    27
22.2962    28
22.3062    30
22.3162    30
22.3262    32
22.3362    29
22.3462    33
22.3562    30
22.3662    25
22.3762    36
22.3862    27
22.3962    23
22.4062    31
22.4162    33
22.4262    30
22.4362    33
22.4462    31
22.4562    30
22.4662    26
22.4762    24
22.4862    30
22.4962    28
22.5063    20
22.5163    28
22.5263    29
22.5363    32
22.5463    35
22.5563    31
22.5663    28
22.5763    27
22.5863    30
22.5963    32
22.6063    35
22.6163    39
22.6263    28
22.6363    28
22.6463    36
22.6563    41
22.6663    33
22.6763    34
22.6863    43
22.6963    41
22.7063    47
22.7163    41
22.7263    42
22.7363    44
22.7463    43
22.7563    38
22.7663    43
22.7763    37
22.7863    42
22.7963    48
22.8063    37
22.8163    41
22.8263    38
22.8363    43
22.8463    24
22.8563    30
22.8663    33
22.8763    23
22.8863    33
22.8963    35
22.9063    35
22.9163    25
22.9263    26
22.9363    17
22.9463    28
22.9563    38
22.9663    29
22.9763    36
22.9863    24
22.9963    25
23.0063    28
23.0163    28
23.0263    26
23.0363    22
23.0463    23
23.0563    19
23.0663    25
23.0763    23
23.0863    27
23.0963    22
23.1063    27
23.1163    21
23.1263    23
23.1363    24
23.1463    21
23.1563    30
23.1663    23
23.1763    20
23.1863    16
23.1963    23
23.2063    29
23.2163    29
23.2263    28
23.2363    35
23.2463    28
23.2563    22
23.2663    28
23.2763    16
23.2863    19
23.2963    12
23.3063    27
23.3163    28
23.3263    23
23.3363    18
23.3463    21
23.3563    15
23.3663    24
23.3763    29
23.3863    30
23.3963    20
23.4063    15
23.4163    13
23.4263    22
23.4363    17
23.4463    19
23.4563    26
23.4663    16
23.4763    16
23.4863    20
23.4963    26
23.5064    18
23.5164    14
23.5264    16
23.5364    16
23.5464    25
23.5564    19
23.5664    24
23.5764    21
23.5864    24
23.5964    20
23.6064    14
23.6164    15
23.6264    25
23.6364    12
23.6464    22
23.6564     9
23.6664    20
23.6764    22
23.6864    25
23.6964    15
23.7064    16
23.7164    16
23.7264    18
23.7364    12
23.7464    20
23.7564    15
23.7664    15
23.7764    13
23.7864    22
23.7964     8
23.8064    21
23.8164    17
23.8264    18
23.8364    23
23.8464    18
23.8564    16
23.8664    15
23.8764    15
23.8864    27
23.8964    15
23.9064    18
23.9164    21
23.9264    14
23.9364    20
23.9464    15
23.9564    20
23.9664    26
23.9764    18
23.9864    21
23.9964    11
24.0064    21
24.0164    14
24.0264    14
24.0364    15
24.0464    14
24.0564     8
24.0664    20
24.0764    14
24.0864    14
24.0964    15
24.1064    26
24.1164    13
24.1264    14
24.1364    12
24.1464    21
24.1564    17
24.1664    21
24.1764    24
24.1864    14
24.1964    12
24.2064    15
24.2164    18
24.2264    16
24.2364    23
24.2464    17
24.2564    13
24.2664    16
24.2764    13
24.2864    22
24.2964    14
24.3064    10
24.3164    18
24.3264     9
24.3364    22
24.3464    14
24.3564    15
24.3664    23
24.3764     9
24.3864    18
24.3964    15
24.4064    11
24.4164     6
24.4264    16
24.4364    10
24.4464    10
24.4564    11
24.4664    13
24.4764    19
24.4864    13
24.4964    17
24.5065    12
24.5165     9
24.5265    13
24.5365    16
24.5465    10
24.5565    18
24.5665    16
24.5765    18
24.5865    14
24.5965    15
24.6065     9
24.6165    12
24.6265    11
24.6365    11
24.6465    18
24.6565    14
24.6665    20
24.6765    15
24.6865    12
24.6965    12
24.7065    13
24.7165    13
24.7265     6
24.7365    13
24.7465    12
24.7565    20
24.7665    10
24.7765    10
24.7865    13
24.7965    15
24.8065    11
24.8165     9
24.8265    18
24.8365    11
24.8465    11
24.8565    16
24.8665    11
24.8765     8
24.8865    15
24.8965    20
24.9065    14
24.9165     9
24.9265    16
24.9365    23
24.9465    14
24.9565    16
24.9665    12
24.9765    16
24.9865    20
24.9965    14
25.0065    14
25.0165    13
25.0265    23
25.0365    18
25.0465    16
25.0565    10
25.0665    16
25.0765    19
25.0865    15
25.0965    21
25.1065    19
25.1165    18
25.1265    23
25.1365    16
25.1465    12
25.1565    18
25.1665    19
25.1765    22
25.1865    25
25.1965    20
25.2065    24
25.2165     8
25.2265    14
25.2365    20
25.2465    20
25.2565     9
25.2665    18
25.2765    30
25.2865    23
25.2965     9
25.3065    16
25.3165    20
25.3265    20
25.3365    24
25.3465    15
25.3565    15
25.3665    17
25.3765    14
25.3865    16
25.3965    13
25.4065    13
25.4165    16
25.4265    14
25.4365    11
25.4465    19
25.4565    21
25.4665    17
25.4765    13
25.4865    15
25.4965    11
25.5066     9
25.5166     8
25.5266    11
25.5366     9
25.5466    12
25.5566     5
25.5666    12
25.5766     8
25.5866     6
25.5966    12
25.6066    16
25.6166    18
25.6266     8
25.6366    10
25.6466    13
25.6566    13
25.6666    10
25.6766    10
25.6866    11
25.6966     8
25.7066     8
25.7166     7
25.7266     8
25.7366    17
25.7466     9
25.7566    10
25.7666     6
25.7766     8
25.7866     4
25.7966     7
25.8066    11
25.8166    15
25.8266     8
25.8366    10
25.8466    11
25.8566    13
25.8666    10
25.8766     9
25.8866     7
25.8966     8
25.9066    11
25.9166     9
25.9266     8
25.9366    11
25.9466    10
25.9566    13
25.9666    15
25.9766     7
25.9866     5
25.9966     8
26.0066     7
26.0166    11
26.0266     9
26.0366     9
26.0466    10
26.0566    13
26.0666     8
26.0766    14
26.0866     9
26.0966     5
26.1066     6
26.1166    10
26.1266     8
26.1366     7
26.1466    10
26.1566     9
26.1666    13
26.1766     9
26.1866     7
26.1966     7
26.2066    10
26.2166    10
26.2266    10
26.2366    11
26.2466     5
26.2566    14
26.2666     8
26.2766     8
26.2866     7
26.2966     8
26.3066    15
26.3166    10
26.3266     6
26.3366     6
26.3466    14
26.3566     6
26.3666     6
26.3766     8
26.3866    10
26.3966     7
26.4066     4
26.4166    10
26.4266     9
26.4366    10
26.4466    11
26.4566     6
26.4666     9
26.4766     8
26.4866     6
26.4966     8
26.5067    11
26.5167    13
26.5267     7
26.5367     6
26.5467     9
26.5567    10
26.5667    12
26.5767     9
26.5867     7
26.5967     9
26.6067     6
26.6167     8
26.6267    13
26.6367     9
26.6467     8
26.6567    10
26.6667     7
26.6767     4
26.6867     9
26.6967     7
26.7067     6
26.7167     4
26.7267     6
26.7367     8
26.7467     8
26.7567     6
26.7667     9
26.7767     4
26.7867     4
26.7967     8
26.8067     8
26.8167     6
26.8267     9
26.8367     5
26.8467     5
26.8567     7
26.8667     9
26.8767     9
26.8867     5
26.8967     5
26.9067     6
26.9167    12
26.9267    10
26.9367     9
26.9467     6
26.9567     8
26.9667    10
26.9767     7
26.9867     5
26.9967     4
27.0067     7
27.0167     7
27.0267     5
27.0367     6
27.0467     4
27.0567     6
27.0667     6
27.0767     6
27.0867     6
27.0967     4
27.1067     6
27.1167     7
27.1267     6
27.1367     9
27.1467     8
27.1567     8
27.1667     6
27.1767     6
27.1867     5
27.1967     3
27.2067     4
27.2167     8
27.2267     8
27.2367     5
27.2467     9
27.2567     7
27.2667     7
27.2767     7
27.2867     5
27.2967     6
27.3067     7
27.3167     9
27.3267     7
27.3367     6
27.3467     5
27.3567     4
27.3667     7
27.3767     4
27.3867     3
27.3967     4
27.4067     6
27.4167     9
27.4267     5
27.4367     6
27.4467     6
27.4567     8
27.4667     4
27.4767    11
27.4867    12
27.4967     8
27.5068     6
27.5168     4
27.5268     6
27.5368     4
27.5468     6
27.5568     5
27.5668     4
27.5768     4
27.5868     5
27.5968     7
27.6068     9
27.6168     7
27.6268     6
27.6368     8
27.6468     6
27.6568     3
27.6668     3
27.6768     4
27.6868     5
27.6968     3
27.7068     5
27.7168     8
27.7268     7
27.7368     5
27.7468     7
27.7568     6
27.7668     7
27.7768     8
27.7868     4
27.7968     3
27.8068     7
27.8168     6
27.8268     3
27.8368     5
27.8468     6
27.8568     6
27.8668     5
27.8768     3
27.8868     3
27.8968     4
27.9068     4
27.9168     2
27.9268     5
27.9368     8
27.9468     8
27.9568     6
27.9668     5
27.9768     2
27.9868     4
27.9968     4
28.0068     5
28.0168     4
28.0268     3
28.0368     3
28.0468     4
28.0568     6
28.0668     6
28.0768     7
28.0868     7
28.0968     7
28.1068     6
28.1168     4
28.1268     3
28.1368     5
28.1468     6
28.1568     6
28.1668     5
28.1768     2
28.1868     1
28.1968     5
28.2068     5
28.2168     6
28.2268     7
28.2368     5
28.2468     3
28.2568     3
28.2668     3
28.2768     2
28.2868     2
28.2968     6
28.3068     7
28.3168     4
28.3268     5
28.3368     6
28.3468     7
28.3568     5
28.3668     5
28.3768     4
28.3868     4
28.3968     6
28.4068     5
28.4168     6
28.4268     8
28.4368     5
28.4468     5
28.4568     5
28.4668     6
28.4768     4
28.4868     3
28.4968     3
28.5069     4
28.5169     3
28.5269     7
28.5369     6
28.5469     8
28.5569     9
28.5669     7
28.5769     8
28.5869     4
28.5969     4
28.6069     5
28.6169     7
28.6269     5
28.6369     5
28.6469     7
28.6569     5
28.6669     6
28.6769    10
28.6869     7
28.6969     5
28.7069     8
28.7169     7
28.7269     6
28.7369     5
28.7469     4
28.7569     5
28.7669     4
28.7769     3
28.7869     1
28.7969     2
28.8069     2
28.8169     1
28.8269     4
28.8369     9
28.8469     5
28.8569     3
28.8669     3
28.8769     2
28.8869     5
28.8969     5
28.9069     4
28.9169     4
28.9269     4
28.9369     4
28.9469     5
28.9569     8
28.9669     8
28.9769     5
28.9869     4
28.9969     3
29.0069     4
29.0169     5
29.0269     3
29.0369     5
29.0469     5
29.0569     4
29.0669     2
29.0769     4
29.0869     4
29.0969     4
29.1069     3
29.1169     5
29.1269     5
29.1369     4
29.1469     4
29.1569     4
29.1669     3
29.1769     3
29.1869     4
29.1969     3
29.2069     4
29.2169     6
29.2269     6
29.2369     4
29.2469     2
29.2569     2
29.2669     2
29.2769     3
29.2869     3
29.2969     3
29.3069     5
29.3169     3
29.3269     3
29.3369     4
29.3469     3
29.3569     4
29.3669     3
29.3769     2
29.3869     4
29.3969     8
29.4069     6
29.4169     2
29.4269     1
29.4369     2
29.4469     3
29.4569     5
29.4669     3
29.4769     6
29.4869     7
29.4969     3
 29.507     3
 29.517     3
 29.527     3
 29.537     2
 29.547     3
 29.557     4
 29.567     3
 29.577     4
 29.587     3
 29.597     3
 29.607     4
 29.617     3
 29.627     2
 29.637     4
 29.647     4
 29.657     2
 29.667     3
 29.677     2
 29.687     3
 29.697     3
 29.707     5
 29.717     5
 29.727     4
 29.737     3
 29.747     1
 29.757     2
 29.767     3
 29.777     2
 29.787     2
 29.797     2
 29.807     3
 29.817     4
 29.827     3
 29.837     3
 29.847     3
 29.857     3
 29.867     4
 29.877     3
 29.887     5
 29.897     6
 29.907     3
 29.917     3
 29.927     4
 29.937     3
 29.947     3
 29.957     5
 29.967     5
 29.977     3
 29.987     2
 29.997     1
 30.007     3
 30.017     3
 30.027     2
 30.037     3
 30.047     3
 30.057     2
 30.067     1
 30.077     3
 30.087     4
 30.097     4
 30.107     4
 30.117     2
 30.127     1
 30.137     2
 30.147     2
 30.157     3
 30.167     4
 30.177     3
 30.187     2
 30.197     2
 30.207     4
 30.217     4
 30.227     4
 30.237     2
 30.247     4
 30.257     4
 30.267     2
 30.277     1
 30.287     1
 30.297     2
 30.307     3
 30.317     2
 30.327     3
 30.337     3
 30.347     2
 30.357     2
 30.367     2
 30.377     2
 30.387     3
 30.397     2
 30.407     1
 30.417     1
 30.427     3
 30.437     2
 30.447     0
 30.457     1
 30.467     1
 30.477     3
 30.487     3
 30.497     1
30.5071     2
30.5171     4
30.5271     2
30.5371     3
30.5471     3
30.5571     1
30.5671     1
30.5771     3
30.5871     3
30.5971     2
30.6071     2
30.6171     2
30.6271     1
30.6371     1
30.6471     2
30.6571     3
30.6671     3
30.6771     2
30.6871     3
30.6971     2
30.7071     4
30.7171     6
30.7271     3
30.7371     1
30.7471     2
30.7571     3
30.7671     2
30.7771     1
30.7871     2
30.7971     1
30.8071     1
30.8171     2
30.8271     2
30.8371     3
30.8471     3
30.8571     3
30.8671     1
30.8771     1
30.8871     1
30.8971     0
30.9071     2
30.9171     4
30.9271     3
30.9371     4
30.9471     3
30.9571     4
30.9671     2
30.9771     0
30.9871     1
30.9971     1
31.0071     1
31.0171     2
31.0271     1
31.0371     0
31.0471     1
31.0571     1
31.0671     2
31.0771     2
31.0871     2
31.0971     1
31.1071     2
31.1171     3
31.1271     2
31.1371     3
31.1471     4
31.1571     1
31.1671     1
31.1771     1
31.1871     2
31.1971     1
31.2071     1
31.2171     2
31.2271     1
31.2371     0
31.2471     1
31.2571     3
31.2671     1
31.2771     1
31.2871     2
31.2971     1
31.3071     1
31.3171     2
31.3271     5
31.3371     4
31.3471     3
31.3571     4
31.3671     3
31.3771     3
31.3871     2
31.3971     1
31.4071     1
31.4171     2
31.4271     1
31.4371     1
31.4471     2
31.4571     1
31.4671     2
31.4771     2
31.4871     3
31.4971     5
31.5072     4
31.5172     1
31.5272     1
31.5372     2
31.5472     3
31.5572     3
31.5672     2
31.5772     1
31.5872     2
31.5972     2
31.6072     2
31.6172     2
31.6272     2
31.6372     1
31.6472     3
31.6572     2
31.6672     2
31.6772     3
31.6872     3
31.6972     3
31.7072     2
31.7172     3
31.7272     3
31.7372     2
31.7472     3
31.7572     4
31.7672     4
31.7772     3
31.7872     2
31.7972     4
31.8072     3
31.8172     4
31.8272     3
31.8372     2
31.8472     2
31.8572     1
31.8672     4
31.8772     1
31.8872     1
31.8972     2
31.9072     3
31.9172     2
31.9272     2
31.9372     2
31.9472     2
31.9572     4
31.9672     3
31.9772     1
31.9872     0
31.9972     1
32.0072     1
32.0172     4
32.0272     1
32.0372     2
32.0472     2
32.0572     1
32.0672     3
32.0772     1
32.0872     2
32.0972     2
32.1072     2
32.1172     1
32.1272     1
32.1372     0
32.1472     1
32.1572     3
32.1672     3
32.1772     2
32.1872     0
32.1972     0
32.2072     2
32.2172     3
32.2272     1
32.2372     4
32.2472     4
32.2572     3
32.2672     3
32.2772     2
32.2872     3
32.2972     1
32.3072     2
32.3172     3
32.3272     4
32.3372     3
32.3472     2
32.3572     2
32.3672     3
32.3772     3
32.3872     1
32.3972     1
32.4072     2
32.4172     2
32.4272     1
32.4372     2
32.4472     1
32.4572     0
32.4672     2
32.4772     2
32.4872     0
32.4972     1
32.5073     1
32.5173     2
32.5273     2
32.5373     1
32.5473     1
32.5573     1
32.5673     2
32.5773     1
32.5873     2
32.5973     2
32.6073     1
32.6173     2
32.6273     2
32.6373     1
32.6473     2
32.6573     2
32.6673     1
32.6773     1
32.6873     3
32.6973     2
32.7073     1
32.7173     1
32.7273     1
32.7373     2
32.7473     2
32.7573     0
32.7673     1
32.7773     3
32.7873     5
32.7973     3
32.8073     1
32.8173     1
32.8273     1
32.8373     0
32.8473     2
32.8573     3
32.8673     2
32.8773     2
32.8873     1
32.8973     1
32.9073     2
32.9173     1
32.9273     1
32.9373     3
32.9473     3
32.9573     3
32.9673     1
32.9773     1
32.9873     2
32.9973     1
33.0073     1
33.0173     2
33.0273     2
33.0373     2
33.0473     0
33.0573     0
33.0673     2
33.0773     4
33.0873     1
33.0973     0
33.1073     1
33.1173     2
33.1273     2
33.1373     2
33.1473     2
33.1573     3
33.1673     0
33.1773     1
33.1873     0
33.1973     0
33.2073     0
33.2173     0
33.2273     0
33.2373     1
33.2473     1
33.2573     2
33.2673     1
33.2773     0
33.2873     1
33.2973     0
33.3073     0
33.3173     1
33.3273     1
33.3373     1
33.3473     0
33.3573     1
33.3673     1
33.3773     1
33.3873     0
33.3973     1
33.4073     2
33.4173     2
33.4273     4
33.4373     2
33.4473     1
33.4573     0
33.4673     1
33.4773     1
33.4873     0
33.4973     1
33.5074     2
33.5174     0
33.5274     1
33.5374     1
33.5474     2
33.5574     1
33.5674     3
33.5774     2
33.5874     2
33.5974     2
33.6074     1
33.6174     2
33.6274     1
33.6374     0
33.6474     1
33.6574     1
33.6674     2
33.6774     1
33.6874     2
33.6974     1
33.7074     0
33.7174     1
33.7274     1
33.7374     0
33.7474     0
33.7574     0
33.7674     1
33.7774     0
33.7874     1
33.7974     1
33.8074     3
33.8174     2
33.8274     1
33.8374     0
33.8474     1
33.8574     1
33.8674     1
33.8774     0
33.8874     0
33.8974     1
33.9074     2
33.9174     1
33.9274     2
33.9374     1
33.9474     1
33.9574     1
33.9674     1
33.9774     2
33.9874     1
33.9974     0
34.0074     1
34.0174     1
34.0274     1
34.0374     2
34.0474     3
34.0574     1
34.0674     0
34.0774     1
34.0874     2
34.0974     1
34.1074     0
34.1174     2
34.1274     3
34.1374     1
34.1474     3
34.1574     0
34.1674     1
34.1774     0
34.1874     1
34.1974     1
34.2074     1
34.2174     1
34.2274     2
34.2374     1
34.2474     2
34.2574     1
34.2674     2
34.2774     1
34.2874     1
34.2974     2
34.3074     1
34.3174     1
34.3274     1
34.3374     2
34.3474     1
34.3574     0
34.3674     0
34.3774     0
34.3874     1
34.3974     1
34.4074     0
34.4174     0
34.4274     1
34.4374     0
34.4474     0
34.4574     1
34.4674     2
34.4774     0
34.4874     1
34.4974     0
34.5075     1
34.5175     0
34.5275     0
34.5375     0
34.5475     1
34.5575     0
34.5675     1
34.5775     2
34.5875     1
34.5975     0
34.6075     1
34.6175     1
34.6275     0
34.6375     1
34.6475     1
34.6575     2
34.6675     2
34.6775     1
34.6875     0
34.6975     1
34.7075     1
34.7175     1
34.7275     0
34.7375     0
34.7475     1
34.7575     1
34.7675     1
34.7775     0
34.7875     0
34.7975     1
34.8075     1
34.8175     1
34.8275     2
34.8375     1
34.8475     1
34.8575     1
34.8675     2
34.8775     1
34.8875     2
34.8975     2
34.9075     1
34.9175     0
34.9275     1
34.9375     1
34.9475     0
34.9575     0
34.9675     0
34.9775     1
34.9875     1
34.9975     0
35.0075     0
35.0175     1
35.0275     1
35.0375     1
35.0475     1
35.0575     1
35.0675     0
35.0775     1
35.0875     1
35.0975     0
35.1075     0
35.1175     0
35.1275     1
35.1375     0
35.1475     0
35.1575     0
35.1675     0
35.1775     1
35.1875     0
35.1975     1
35.2075     2
35.2175     1
35.2275     1
35.2375     0
35.2475     1
35.2575     1
35.2675     0
35.2775     0
35.2875     0
35.2975     1
35.3075     0
35.3175     0
35.3275     1
35.3375     0
35.3475     0
35.3575     1
35.3675     1
35.3775     1
35.3875     1
35.3975     0
35.4075     1
35.4175     1
35.4275     1
35.4375     0
35.4475     1
35.4575     0
35.4675     1
35.4775     1
35.4875     1
35.4975     0
35.5076     0
35.5176     0
35.5276     1
35.5376     1
35.5476     1
35.5576     1
35.5676     0
35.5776     0
35.5876     2
35.5976     2
35.6076     1
35.6176     1
35.6276     0
35.6376     0
35.6476     1
35.6576     0
35.6676     0
35.6776     0
35.6876     1
35.6976     1
35.7076     0
35.7176     1
35.7276     1
35.7376     0
35.7476     0
35.7576     1
35.7676     1
35.7776     1
35.7876     0
35.7976     0
35.8076     1
35.8176     0
35.8276     1
35.8376     0
35.8476     0
35.8576     1
35.8676     2
35.8776     2
35.8876     1
35.8976     0
35.9076     0
35.9176     1
35.9276     0
35.9376     0
35.9476     0
35.9576     0
35.9676     0
35.9776     0
35.9876     0
35.9976     1
36.0076     0
36.0176     1
36.0276     0
36.0376     0
36.0476     1
36.0576     0
36.0676     0
36.0776     0
36.0876     0
36.0976     0
36.1076     1
36.1176     1
36.1276     1
36.1376     0
36.1476     1
36.1576     2
36.1676     1
36.1776     2
36.1876     1
36.1976     1
36.2076     0
36.2176     0
36.2276     1
36.2376     0
36.2476     0
36.2576     0
36.2676     0
36.2776     0
36.2876     0
36.2976     0
36.3076     0
36.3176     1
36.3276     1
36.3376     1
36.3476     2
36.3576     0
36.3676     0
36.3776     0
36.3876     0
36.3976     0
36.4076     0
36.4176     2
36.4276     2
36.4376     1
36.4476     1
36.4576     1
36.4676     2
36.4776     1
36.4876     1
36.4976     1
36.5077     0
36.5177     1
36.5277     2
36.5377     0
36.5477     0
36.5577     1
36.5677     0
36.5777     1
36.5877     1
36.5977     1
36.6077     0
36.6177     0
36.6277     0
36.6377     0
36.6477     0
36.6577     0
36.6677     0
36.6777     0
36.6877     1
36.6977     1
36.7077     0
36.7177     0
36.7277     0
36.7377     1
36.7477     0
36.7577     0
36.7677     0
36.7777     0
36.7877     0
36.7977     0
36.8077     0
36.8177     1
36.8277     1
36.8377     1
36.8477     1
36.8577     0
36.8677     0
36.8777     1
36.8877     0
36.8977     0
36.9077     1
36.9177     0
36.9277     1
36.9377     0
36.9477     0
36.9577     0
36.9677     1
36.9777     1
36.9877     0
36.9977     0
37.0077     0
37.0177     1
37.0277     1
37.0377     1
37.0477     0
37.0577     0
37.0677     0
37.0777     0
37.0877     0
37.0977     0
37.1077     0
37.1177     0
37.1277     1
37.1377     0
37.1477     0
37.1577     1
37.1677     1
37.1777     1
37.1877     0
37.1977     1
37.2077     3
37.2177     1
37.2277     0
37.2377     1
37.2477     1
37.2577     1
37.2677     0
37.2777     0
37.2877     1
37.2977     0
37.3077     0
37.3177     1
37.3277     1
37.3377     0
37.3477     0
37.3577     0
37.3677     0
37.3777     0
37.3877     0
37.3977     0
37.4077     1
37.4177     0
37.4277     0
37.4377     0
37.4477     0
37.4577     0
37.4677     1
37.4777     0
37.4877     1
37.4977     0
37.5078     1
37.5178     0
37.5278     0
37.5378     1
37.5478     2
37.5578     1
37.5678     1
37.5778     0
37.5878     1
37.5978     1
37.6078     1
37.6178     0
37.6278     0
37.6378     1
37.6478     0
37.6578     1
37.6678     0
37.6778     1
37.6878     0
37.6978     0
37.7078     1
37.7178     1
37.7278     1
37.7378     0
37.7478     0
37.7578     1
37.7678     0
37.7778     0
37.7878     0
37.7978     0
37.8078     1
37.8178     0
37.8278     1
37.8378     0
37.8478     0
37.8578     1
37.8678     0
37.8778     1
37.8878     2
37.8978     1
37.9078     1
37.9178     0
37.9278     0
37.9378     1
37.9478     0
37.9578     0
37.9678     0
37.9778     1
37.9878     0
37.9978     0
38.0078     0
38.0178     1
38.0278     0
38.0378     0
38.0478     0
38.0578     0
38.0678     0
38.0778     1
38.0878     0
38.0978     1
38.1078     0
38.1178     0
38.1278     0
38.1378     1
38.1478     0
38.1578     0
38.1678     1
38.1778     0
38.1878     0
38.1978     0
38.2078     0
38.2178     0
38.2278     0
38.2378     0
38.2478     1
38.2578     1
38.2678     1
38.2778     0
38.2878     0
38.2978     0
38.3078     0
38.3178     0
38.3278     1
38.3378     0
38.3478     0
38.3578     1
38.3678     0
38.3778     0
38.3878     0
38.3978     0
38.4078     0
38.4178     0
38.4278     0
38.4378     0
38.4478     0
38.4578     0
38.4678     1
38.4778     0
38.4878     1
38.4978     0
38.5079     0
38.5179     0
38.5279     0
38.5379     0
38.5479     0
38.5579     1
38.5679     0
38.5779     0
38.5879     0
38.5979     0
38.6079     0
38.6179     1
38.6279     0
38.6379     1
38.6479     0
38.6579     0
38.6679     0
38.6779     0
38.6879     0
38.6979     0
38.7079     0
38.7179     1
38.7279     0
38.7379     1
38.7479     1
38.7579     0
38.7679     0
38.7779     0
38.7879     0
38.7979     0
38.8079     0
38.8179     1
38.8279     0
38.8379     0
38.8479     0
38.8579     0
38.8679     0
38.8779     0
38.8879     1
38.8979     1
38.9079     0
38.9179     0
38.9279     0
38.9379     0
38.9479     0
38.9579     0
38.9679     1
38.9779     0
38.9879     0
38.9979     0
39.0079     0
39.0179     0
39.0279     0
39.0379     0
39.0479     0
39.0579     0
39.0679     0
39.0779     1
39.0879     0
39.0979     0
39.1079     0
39.1179     0
39.1279     0
39.1379     0
39.1479     0
39.1579     0
39.1679     1
39.1779     0
39.1879     0
39.1979     0
39.2079     0
39.2179     0
39.2279     0
39.2379     0
39.2479     0
39.2579     0
39.2679     0
39.2779     0
39.2879     0
39.2979     0
39.3079     0
39.3179     0
39.3279     0
39.3379     0
39.3479     1
39.3579     1
39.3679     0
39.3779     0
39.3879     0
39.3979     1
39.4079     1
39.4179     0
39.4279     0
39.4379     0
39.4479     1
39.4579     0
39.4679     0
39.4779     0
39.4879     0
39.4979     0
 39.508     0
 39.518     0
 39.528     0
 39.538     0
 39.548     0
 39.558     0
 39.568     0
 39.578     0
 39.588     0
 39.598     0
 39.608     0
 39.618     0
 39.628     0
 39.638     1
 39.648     0
 39.658     0
 39.668     0
 39.678     0
 39.688     1
 39.698     0
 39.708     1
 39.718     0
 39.728     0
 39.738     0
 39.748     1
 39.758     0
 39.768     1
 39.778     0
 39.788     0
 39.798     1
 39.808     0
 39.818     1
 39.828     0
 39.838     0
 39.848     0
 39.858     0
 39.868     0
 39.878     0
 39.888     0
 39.898     0
 39.908     0
 39.918     0
 39.928     0
 39.938     0
 39.948     0
 39.958     1
 39.968     0
 39.978     0
 39.988     0
 39.998     1
