Bruker Nano GmbH Berlin, Germany
Esprit 1.9

Date: 4/5/2021 6:26:37 PM
Real time: 33555
Life time: 30006
Pulse density: 52660


Detector type: XFlash 430
Window type: Custom type
Detector thickness: 0.45
Si dead layer:0.029

Calibration, lin.: 10.001
Calibration, abs.: -956.096
Mn FWHM: 143.763
Fano factor: 0.114
Channels: 4096

Energy Counts
-0.9561     0
-0.9461     0
-0.9361     0
-0.9261     0
-0.9161     0
-0.9061     0
-0.8961     0
-0.8861     0
-0.8761     0
-0.8661     0
-0.8561     0
-0.8461     0
-0.8361     0
-0.8261     0
-0.8161     0
-0.8061     0
-0.7961     0
-0.7861     0
-0.7761     0
-0.7661     0
-0.7561     0
-0.7461     0
-0.7361     0
-0.7261     0
-0.7161     0
-0.7061     0
-0.6961     0
-0.6861     0
-0.6761     0
-0.6661     0
-0.6561     0
-0.6461     0
-0.6361     0
-0.6261     0
-0.6161     0
-0.6061     0
-0.5961     0
-0.5861     0
-0.5761     0
-0.5661     0
-0.5561     0
-0.5461     0
-0.5361     0
-0.5261     0
-0.5161     0
-0.5061     0
 -0.496     0
 -0.486     0
 -0.476     0
 -0.466     0
 -0.456     0
 -0.446     0
 -0.436     0
 -0.426     0
 -0.416     0
 -0.406     0
 -0.396     0
 -0.386     0
 -0.376     0
 -0.366     0
 -0.356     0
 -0.346     0
 -0.336     0
 -0.326     0
 -0.316     0
 -0.306     0
 -0.296     0
 -0.286     0
 -0.276     1
 -0.266     0
 -0.256     3
 -0.246     1
 -0.236     0
 -0.226     2
 -0.216     6
 -0.206     2
 -0.196     5
 -0.186     5
 -0.176     7
 -0.166     9
 -0.156     4
 -0.146     6
 -0.136    14
 -0.126    30
 -0.116    95
 -0.106   235
 -0.096   591
 -0.086  1320
 -0.076  2727
 -0.066  5243
 -0.056  9027
 -0.046 14113
 -0.036 20559
 -0.026 26989
 -0.016 32183
 -0.006 35209
  0.004 35461
  0.014 32470
  0.024 27322
  0.034 20954
  0.044 14473
  0.054  9186
  0.064  5320
  0.074  2904
  0.084  1325
  0.094   593
  0.104   240
  0.114    90
  0.124    30
  0.134     4
  0.144     4
  0.154     2
  0.164     1
  0.174     1
  0.184     0
  0.194     1
  0.204     0
  0.214     0
  0.224     0
  0.234     0
  0.244     0
  0.254     0
  0.264    -1
  0.274     0
  0.284     0
  0.294     0
  0.304     4
  0.314    33
  0.324    40
  0.334    34
  0.344    34
  0.354    37
  0.364    39
  0.374    30
  0.384    27
  0.394    30
  0.404    30
  0.414    22
  0.424    32
  0.434    24
  0.444    22
  0.454    21
  0.464    27
  0.474    23
  0.484    21
  0.494    23
 0.5041    22
 0.5141    37
 0.5241    23
 0.5341    19
 0.5441    20
 0.5541    21
 0.5641    21
 0.5741    16
 0.5841    26
 0.5941    24
 0.6041    23
 0.6141    21
 0.6241    27
 0.6341    21
 0.6441    30
 0.6541    13
 0.6641    29
 0.6741    16
 0.6841    27
 0.6941    16
 0.7041    18
 0.7141    21
 0.7241    26
 0.7341    25
 0.7441    22
 0.7541    16
 0.7641    23
 0.7741    16
 0.7841    16
 0.7941    24
 0.8041    22
 0.8141    22
 0.8241    26
 0.8341    21
 0.8441    21
 0.8541    19
 0.8641    19
 0.8741    20
 0.8841    14
 0.8941    19
 0.9041    19
 0.9141    28
 0.9241    22
 0.9341    11
 0.9441    18
 0.9541    16
 0.9641    22
 0.9741    22
 0.9841    16
 0.9941    15
 1.0041    23
 1.0141    19
 1.0241    20
 1.0341    21
 1.0441    22
 1.0541    19
 1.0641    19
 1.0741    22
 1.0841    21
 1.0941    21
 1.1041    19
 1.1141    14
 1.1241    19
 1.1341    14
 1.1441    18
 1.1541    26
 1.1641    23
 1.1741    15
 1.1841    20
 1.1941    18
 1.2041    19
 1.2141    20
 1.2241    16
 1.2341    14
 1.2441    17
 1.2541    21
 1.2641    17
 1.2741    14
 1.2841    14
 1.2941    16
 1.3041    16
 1.3141    17
 1.3241    17
 1.3341    18
 1.3441    18
 1.3541    21
 1.3641    20
 1.3741    13
 1.3841    10
 1.3941    13
 1.4041    15
 1.4141    19
 1.4241    16
 1.4341    16
 1.4441    11
 1.4541    16
 1.4641    15
 1.4741    21
 1.4841    17
 1.4941    12
 1.5042    16
 1.5142    14
 1.5242    18
 1.5342    11
 1.5442    11
 1.5542    11
 1.5642    16
 1.5742     9
 1.5842    16
 1.5942     7
 1.6042     8
 1.6142    13
 1.6242     8
 1.6342    14
 1.6442    10
 1.6542    11
 1.6642    12
 1.6742    16
 1.6842    11
 1.6942    12
 1.7042    13
 1.7142    10
 1.7242    10
 1.7342    10
 1.7442    11
 1.7542    13
 1.7642    11
 1.7742    11
 1.7842    12
 1.7942     7
 1.8042     9
 1.8142    14
 1.8242    14
 1.8342    12
 1.8442    16
 1.8542    12
 1.8642    10
 1.8742    13
 1.8842     8
 1.8942    13
 1.9042    13
 1.9142     9
 1.9242    12
 1.9342    15
 1.9442    18
 1.9542    21
 1.9642    15
 1.9742    14
 1.9842    11
 1.9942    17
 2.0042    14
 2.0142    10
 2.0242    14
 2.0342    17
 2.0442    12
 2.0542    11
 2.0642    12
 2.0742    21
 2.0842    16
 2.0942    11
 2.1042    11
 2.1142    15
 2.1242    10
 2.1342    13
 2.1442    10
 2.1542    16
 2.1642    17
 2.1742    16
 2.1842    12
 2.1942    16
 2.2042    22
 2.2142    17
 2.2242    23
 2.2342    26
 2.2442    21
 2.2542    30
 2.2642    44
 2.2742    34
 2.2842    48
 2.2942    46
 2.3042    50
 2.3142    44
 2.3242    49
 2.3342    56
 2.3442    60
 2.3542    28
 2.3642    32
 2.3742    24
 2.3842    29
 2.3942    22
 2.4042    20
 2.4142    18
 2.4242    18
 2.4342    21
 2.4442    13
 2.4542    15
 2.4642    14
 2.4742    15
 2.4842    13
 2.4942    17
 2.5043    17
 2.5143    16
 2.5243    22
 2.5343    18
 2.5443    18
 2.5543    20
 2.5643    14
 2.5743    15
 2.5843    23
 2.5943    23
 2.6043    28
 2.6143    24
 2.6243    33
 2.6343    27
 2.6443    11
 2.6543    23
 2.6643    33
 2.6743    40
 2.6843    32
 2.6943    41
 2.7043    31
 2.7143    28
 2.7243    23
 2.7343    33
 2.7443    40
 2.7543    37
 2.7643    32
 2.7743    37
 2.7843    43
 2.7943    37
 2.8043    28
 2.8143    29
 2.8243    24
 2.8343    45
 2.8443    54
 2.8543    72
 2.8643    87
 2.8743   135
 2.8843   154
 2.8943   184
 2.9043   214
 2.9143   306
 2.9243   339
 2.9343   374
 2.9443   428
 2.9543   427
 2.9643   409
 2.9743   441
 2.9843   424
 2.9943   351
 3.0043   314
 3.0143   277
 3.0243   226
 3.0343   147
 3.0443   116
 3.0543    89
 3.0643    65
 3.0743    39
 3.0843    35
 3.0943    43
 3.1043    26
 3.1143    33
 3.1243    26
 3.1343    41
 3.1443    49
 3.1543    48
 3.1643    63
 3.1743    55
 3.1843    61
 3.1943    68
 3.2043    50
 3.2143    51
 3.2243    57
 3.2343    41
 3.2443    50
 3.2543    44
 3.2643    35
 3.2743    28
 3.2843    32
 3.2943    27
 3.3043    21
 3.3143    24
 3.3243    19
 3.3343    27
 3.3443    23
 3.3543    18
 3.3643    17
 3.3743    16
 3.3843    14
 3.3943    17
 3.4043    16
 3.4143    16
 3.4243    18
 3.4343    13
 3.4443    15
 3.4543    23
 3.4643    16
 3.4743    11
 3.4843    17
 3.4943    17
 3.5044    13
 3.5144    21
 3.5244    19
 3.5344    20
 3.5444    19
 3.5544    27
 3.5644    31
 3.5744    27
 3.5844    32
 3.5944    47
 3.6044    64
 3.6144    86
 3.6244   113
 3.6344   141
 3.6444   161
 3.6544   204
 3.6644   253
 3.6744   255
 3.6844   255
 3.6944   281
 3.7044   279
 3.7144   275
 3.7244   245
 3.7344   196
 3.7444   190
 3.7544   170
 3.7644   137
 3.7744   100
 3.7844    80
 3.7944    71
 3.8044    47
 3.8144    42
 3.8244    43
 3.8344    46
 3.8444    39
 3.8544    33
 3.8644    40
 3.8744    59
 3.8844    51
 3.8944    62
 3.9044    74
 3.9144    87
 3.9244   106
 3.9344   124
 3.9444   135
 3.9544   132
 3.9644   140
 3.9744   149
 3.9844   148
 3.9944   139
 4.0044   140
 4.0144   141
 4.0244   114
 4.0344   107
 4.0444   109
 4.0544   104
 4.0644    94
 4.0744    67
 4.0844    56
 4.0944    50
 4.1044    49
 4.1144    36
 4.1244    34
 4.1344    33
 4.1444    41
 4.1544    39
 4.1644    33
 4.1744    30
 4.1844    37
 4.1944    37
 4.2044    44
 4.2144    43
 4.2244    44
 4.2344    57
 4.2444    61
 4.2544    93
 4.2644    77
 4.2744    76
 4.2844    95
 4.2944   133
 4.3044   169
 4.3144   192
 4.3244   246
 4.3344   294
 4.3444   376
 4.3544   540
 4.3644   805
 4.3744  1063
 4.3844  1468
 4.3944  2023
 4.4044  2720
 4.4144  3579
 4.4244  4547
 4.4344  5631
 4.4444  6962
 4.4544  8163
 4.4644  9478
 4.4744 10536
 4.4844 11488
 4.4944 12142
 4.5045 12419
 4.5145 12415
 4.5245 11939
 4.5345 11042
 4.5445 10164
 4.5545  8977
 4.5645  7601
 4.5745  6327
 4.5845  5102
 4.5945  3974
 4.6045  3012
 4.6145  2251
 4.6245  1581
 4.6345  1106
 4.6445   784
 4.6545   522
 4.6645   362
 4.6745   288
 4.6845   226
 4.6945   205
 4.7045   222
 4.7145   301
 4.7245   343
 4.7345   425
 4.7445   540
 4.7545   678
 4.7645   861
 4.7745  1083
 4.7845  1254
 4.7945  1507
 4.8045  1696
 4.8145  1952
 4.8245  2160
 4.8345  2301
 4.8445  2466
 4.8545  2481
 4.8645  2567
 4.8745  2585
 4.8845  2582
 4.8945  2666
 4.9045  2701
 4.9145  2581
 4.9245  2600
 4.9345  2427
 4.9445  2327
 4.9545  2154
 4.9645  2018
 4.9745  1797
 4.9845  1538
 4.9945  1366
 5.0045  1115
 5.0145   938
 5.0245   784
 5.0345   592
 5.0445   472
 5.0545   386
 5.0645   340
 5.0745   307
 5.0845   294
 5.0945   297
 5.1045   334
 5.1145   370
 5.1245   385
 5.1345   439
 5.1445   442
 5.1545   458
 5.1645   465
 5.1745   441
 5.1845   429
 5.1945   402
 5.2045   373
 5.2145   319
 5.2245   285
 5.2345   254
 5.2445   200
 5.2545   172
 5.2645   150
 5.2745   115
 5.2845   107
 5.2945    87
 5.3045    61
 5.3145    69
 5.3245    64
 5.3345    54
 5.3445    51
 5.3545    40
 5.3645    53
 5.3745    50
 5.3845    53
 5.3945    56
 5.4045    53
 5.4145    77
 5.4245    71
 5.4345    90
 5.4445   105
 5.4545   115
 5.4645   116
 5.4745   153
 5.4845   171
 5.4945   191
 5.5046   190
 5.5146   226
 5.5246   244
 5.5346   238
 5.5446   256
 5.5546   222
 5.5646   235
 5.5746   233
 5.5846   207
 5.5946   176
 5.6046   168
 5.6146   143
 5.6246   124
 5.6346   115
 5.6446   104
 5.6546    99
 5.6646    81
 5.6746    77
 5.6846    64
 5.6946    89
 5.7046    91
 5.7146   103
 5.7246   111
 5.7346   118
 5.7446   129
 5.7546   151
 5.7646   151
 5.7746   169
 5.7846   179
 5.7946   146
 5.8046   172
 5.8146   190
 5.8246   178
 5.8346   157
 5.8446   162
 5.8546   151
 5.8646   141
 5.8746   129
 5.8846   128
 5.8946   136
 5.9046    99
 5.9146   104
 5.9246    74
 5.9346    75
 5.9446    91
 5.9546    75
 5.9646    81
 5.9746    85
 5.9846    70
 5.9946    69
 6.0046    77
 6.0146    66
 6.0246    58
 6.0346    65
 6.0446    59
 6.0546    55
 6.0646    47
 6.0746    43
 6.0846    49
 6.0946    53
 6.1046    55
 6.1146    65
 6.1246    54
 6.1346    53
 6.1446    50
 6.1546    40
 6.1646    52
 6.1746    47
 6.1846    44
 6.1946    43
 6.2046    48
 6.2146    48
 6.2246    48
 6.2346    46
 6.2446    49
 6.2546    54
 6.2646    61
 6.2746    55
 6.2846    66
 6.2946    59
 6.3046    57
 6.3146    61
 6.3246    67
 6.3346    76
 6.3446    86
 6.3546    93
 6.3646    89
 6.3746    99
 6.3846   109
 6.3946   108
 6.4046   116
 6.4146    93
 6.4246    97
 6.4346    99
 6.4446   108
 6.4546    92
 6.4646    88
 6.4746    85
 6.4846    82
 6.4946    93
 6.5047    75
 6.5147    83
 6.5247    63
 6.5347    86
 6.5447    85
 6.5547    79
 6.5647    85
 6.5747    90
 6.5847   104
 6.5947   103
 6.6047   101
 6.6147    89
 6.6247    97
 6.6347    95
 6.6447   119
 6.6547   107
 6.6647   108
 6.6747   111
 6.6847   116
 6.6947   117
 6.7047   136
 6.7147   169
 6.7247   207
 6.7347   250
 6.7447   284
 6.7547   431
 6.7647   595
 6.7747   788
 6.7847  1108
 6.7947  1503
 6.8047  2032
 6.8147  2669
 6.8247  3376
 6.8347  4281
 6.8447  5438
 6.8547  6587
 6.8647  7821
 6.8747  9088
 6.8847 10211
 6.8947 11298
 6.9047 12325
 6.9147 12874
 6.9247 13231
 6.9347 13619
 6.9447 13361
 6.9547 12713
 6.9647 12088
 6.9747 10824
 6.9847  9670
 6.9947  8513
 7.0047  7292
 7.0147  5971
 7.0247  4865
 7.0347  3938
 7.0447  2970
 7.0547  2344
 7.0647  1732
 7.0747  1301
 7.0847   978
 7.0947   691
 7.1047   524
 7.1147   375
 7.1247   287
 7.1347   244
 7.1447   207
 7.1547   199
 7.1647   177
 7.1747   177
 7.1847   165
 7.1947   148
 7.2047   154
 7.2147   196
 7.2247   212
 7.2347   238
 7.2447   279
 7.2547   305
 7.2647   372
 7.2747   502
 7.2847   679
 7.2947   901
 7.3047  1248
 7.3147  1731
 7.3247  2369
 7.3347  3091
 7.3447  4155
 7.3547  5571
 7.3647  7268
 7.3747  9147
 7.3847 11524
 7.3947 13945
 7.4047 16613
 7.4147 19405
 7.4247 22075
 7.4347 24830
 7.4447 27058
 7.4547 28749
 7.4647 30328
 7.4747 30883
 7.4847 30939
 7.4947 30327
 7.5048 28976
 7.5148 27040
 7.5248 24793
 7.5348 22295
 7.5448 19559
 7.5548 16912
 7.5648 14291
 7.5748 11976
 7.5848  9898
 7.5948  8101
 7.6048  6675
 7.6148  5652
 7.6248  4663
 7.6348  3968
 7.6448  3401
 7.6548  3061
 7.6648  2697
 7.6748  2386
 7.6848  2199
 7.6948  1978
 7.7048  1669
 7.7148  1420
 7.7248  1232
 7.7348  1098
 7.7448   905
 7.7548   738
 7.7648   611
 7.7748   502
 7.7848   415
 7.7948   351
 7.8048   291
 7.8148   241
 7.8248   207
 7.8348   179
 7.8448   160
 7.8548   150
 7.8648   148
 7.8748   141
 7.8848   140
 7.8948   131
 7.9048   120
 7.9148   127
 7.9248   126
 7.9348   125
 7.9448   132
 7.9548   129
 7.9648   133
 7.9748   137
 7.9848   138
 7.9948   135
 8.0048   151
 8.0148   165
 8.0248   168
 8.0348   181
 8.0448   186
 8.0548   199
 8.0648   230
 8.0748   247
 8.0848   295
 8.0948   360
 8.1048   409
 8.1148   500
 8.1248   635
 8.1348   760
 8.1448   925
 8.1548  1143
 8.1648  1408
 8.1748  1715
 8.1848  2039
 8.1948  2333
 8.2048  2617
 8.2148  2986
 8.2248  3267
 8.2348  3541
 8.2448  3799
 8.2548  3961
 8.2648  4036
 8.2748  3982
 8.2848  3907
 8.2948  3696
 8.3048  3492
 8.3148  3258
 8.3248  2889
 8.3348  2494
 8.3448  2188
 8.3548  1930
 8.3648  1611
 8.3748  1358
 8.3848  1086
 8.3948   867
 8.4048   744
 8.4148   628
 8.4248   517
 8.4348   468
 8.4448   474
 8.4548   539
 8.4648   660
 8.4748   797
 8.4848  1002
 8.4948  1285
 8.5049  1608
 8.5149  2081
 8.5249  2677
 8.5349  3304
 8.5449  4000
 8.5549  4707
 8.5649  5454
 8.5749  6210
 8.5849  6975
 8.5949  7633
 8.6049  8192
 8.6149  8678
 8.6249  8961
 8.6349  9134
 8.6449  9098
 8.6549  8865
 8.6649  8432
 8.6749  7826
 8.6849  7248
 8.6949  6558
 8.7049  5692
 8.7149  4986
 8.7249  4278
 8.7349  3563
 8.7449  2908
 8.7549  2318
 8.7649  1836
 8.7749  1392
 8.7849  1065
 8.7949   815
 8.8049   594
 8.8149   451
 8.8249   358
 8.8349   263
 8.8449   195
 8.8549   156
 8.8649   124
 8.8749   115
 8.8849   122
 8.8949   108
 8.9049    98
 8.9149   103
 8.9249   101
 8.9349    82
 8.9449    79
 8.9549    93
 8.9649    96
 8.9749    97
 8.9849    88
 8.9949    86
 9.0049    82
 9.0149    88
 9.0249    95
 9.0349    95
 9.0449    99
 9.0549    90
 9.0649    86
 9.0749    98
 9.0849   100
 9.0949   103
 9.1049   100
 9.1149   100
 9.1249   102
 9.1349   101
 9.1449    96
 9.1549    91
 9.1649    90
 9.1749    94
 9.1849    99
 9.1949   100
 9.2049    94
 9.2149    98
 9.2249   101
 9.2349    99
 9.2449    94
 9.2549    90
 9.2649   100
 9.2749   107
 9.2849   100
 9.2949   102
 9.3049   110
 9.3149   108
 9.3249   109
 9.3349   120
 9.3449   125
 9.3549   123
 9.3649   146
 9.3749   164
 9.3849   171
 9.3949   181
 9.4049   194
 9.4149   227
 9.4249   285
 9.4349   334
 9.4449   386
 9.4549   453
 9.4649   520
 9.4749   619
 9.4849   712
 9.4949   808
  9.505   927
  9.515  1079
  9.525  1179
  9.535  1242
  9.545  1293
  9.555  1372
  9.565  1447
  9.575  1439
  9.585  1393
  9.595  1390
  9.605  1361
  9.615  1286
  9.625  1190
  9.635  1076
  9.645   976
  9.655   893
  9.665   763
  9.675   652
  9.685   593
  9.695   488
  9.705   420
  9.715   328
  9.725   267
  9.735   217
  9.745   168
  9.755   157
  9.765   148
  9.775   137
  9.785   113
  9.795   107
  9.805    97
  9.815    89
  9.825    82
  9.835    96
  9.845    92
  9.855    89
  9.865    95
  9.875    87
  9.885    82
  9.895    91
  9.905   100
  9.915   109
  9.925   108
  9.935   100
  9.945    98
  9.955   103
  9.965    97
  9.975   102
  9.985   100
  9.995   103
 10.005   101
 10.015    94
 10.025    99
 10.035    94
 10.045    89
 10.055   108
 10.065   100
 10.075    97
 10.085    98
 10.095    90
 10.105    96
 10.115    98
 10.125    87
 10.135   102
 10.145    98
 10.155    85
 10.165    84
 10.175    86
 10.185    90
 10.195    98
 10.205    82
 10.215    87
 10.225    99
 10.235   100
 10.245   101
 10.255    97
 10.265   101
 10.275    92
 10.285    98
 10.295    92
 10.305    81
 10.315    89
 10.325   113
 10.335    97
 10.345    90
 10.355    98
 10.365    97
 10.375   105
 10.385    91
 10.395   100
 10.405    97
 10.415    90
 10.425    95
 10.435   111
 10.445   118
 10.455   111
 10.465   108
 10.475   110
 10.485   116
 10.495   114
10.5051   118
10.5151   111
10.5251   114
10.5351   110
10.5451   117
10.5551   112
10.5651    90
10.5751   105
10.5851   112
10.5951   117
10.6051   115
10.6151   122
10.6251   100
10.6351   102
10.6451   113
10.6551   124
10.6651   117
10.6751   113
10.6851   113
10.6951   110
10.7051   111
10.7151   107
10.7251   121
10.7351   119
10.7451   117
10.7551   110
10.7651   121
10.7751   112
10.7851   123
10.7951   115
10.8051   122
10.8151   120
10.8251   124
10.8351   126
10.8451   124
10.8551   138
10.8651   145
10.8751   140
10.8851   140
10.8951   128
10.9051   129
10.9151   145
10.9251   137
10.9351   129
10.9451   139
10.9551   123
10.9651   125
10.9751   124
10.9851   117
10.9951   136
11.0051   134
11.0151   112
11.0251   132
11.0351   137
11.0451   128
11.0551   116
11.0651   143
11.0751   152
11.0851   147
11.0951   140
11.1051   133
11.1151   139
11.1251   132
11.1351   116
11.1451   134
11.1551   138
11.1651   133
11.1751   139
11.1851   125
11.1951   141
11.2051   129
11.2151   130
11.2251   134
11.2351   146
11.2451   143
11.2551   132
11.2651   138
11.2751   142
11.2851   136
11.2951   152
11.3051   156
11.3151   130
11.3251   142
11.3351   142
11.3451   140
11.3551   144
11.3651   148
11.3751   151
11.3851   154
11.3951   152
11.4051   149
11.4151   146
11.4251   145
11.4351   152
11.4451   159
11.4551   155
11.4651   157
11.4751   167
11.4851   165
11.4951   159
11.5052   156
11.5152   147
11.5252   145
11.5352   150
11.5452   150
11.5552   146
11.5652   146
11.5752   152
11.5852   157
11.5952   159
11.6052   151
11.6152   134
11.6252   138
11.6352   144
11.6452   160
11.6552   160
11.6652   153
11.6752   154
11.6852   169
11.6952   161
11.7052   168
11.7152   159
11.7252   161
11.7352   165
11.7452   152
11.7552   175
11.7652   146
11.7752   139
11.7852   158
11.7952   153
11.8052   160
11.8152   151
11.8252   154
11.8352   157
11.8452   151
11.8552   154
11.8652   160
11.8752   168
11.8852   170
11.8952   158
11.9052   148
11.9152   156
11.9252   162
11.9352   164
11.9452   174
11.9552   181
11.9652   169
11.9752   151
11.9852   146
11.9952   154
12.0052   159
12.0152   155
12.0252   156
12.0352   163
12.0452   169
12.0552   175
12.0652   178
12.0752   173
12.0852   169
12.0952   170
12.1052   168
12.1152   161
12.1252   151
12.1352   143
12.1452   148
12.1552   162
12.1652   169
12.1752   167
12.1852   166
12.1952   199
12.2052   172
12.2152   169
12.2252   167
12.2352   159
12.2452   173
12.2552   174
12.2652   162
12.2752   145
12.2852   177
12.2952   180
12.3052   153
12.3152   178
12.3252   167
12.3352   171
12.3452   172
12.3552   159
12.3652   190
12.3752   180
12.3852   172
12.3952   174
12.4052   171
12.4152   187
12.4252   169
12.4352   168
12.4452   154
12.4552   163
12.4652   164
12.4752   172
12.4852   172
12.4952   184
12.5053   174
12.5153   181
12.5253   165
12.5353   177
12.5453   172
12.5553   209
12.5653   175
12.5753   181
12.5853   190
12.5953   203
12.6053   190
12.6153   198
12.6253   192
12.6353   208
12.6453   209
12.6553   196
12.6653   198
12.6753   186
12.6853   190
12.6953   187
12.7053   154
12.7153   186
12.7253   178
12.7353   184
12.7453   179
12.7553   182
12.7653   181
12.7753   178
12.7853   176
12.7953   173
12.8053   187
12.8153   178
12.8253   195
12.8353   184
12.8453   180
12.8553   189
12.8653   170
12.8753   201
12.8853   175
12.8953   171
12.9053   191
12.9153   183
12.9253   198
12.9353   192
12.9453   177
12.9553   193
12.9653   191
12.9753   212
12.9853   192
12.9953   186
13.0053   171
13.0153   195
13.0253   194
13.0353   194
13.0453   187
13.0553   179
13.0653   181
13.0753   189
13.0853   198
13.0953   197
13.1053   196
13.1153   201
13.1253   199
13.1353   193
13.1453   190
13.1553   196
13.1653   205
13.1753   203
13.1853   196
13.1953   193
13.2053   189
13.2153   188
13.2253   190
13.2353   187
13.2453   192
13.2553   196
13.2653   198
13.2753   202
13.2853   206
13.2953   204
13.3053   189
13.3153   175
13.3253   169
13.3353   175
13.3453   197
13.3553   212
13.3653   202
13.3753   186
13.3853   187
13.3953   180
13.4053   193
13.4153   193
13.4253   193
13.4353   196
13.4453   171
13.4553   191
13.4653   224
13.4753   223
13.4853   194
13.4953   187
13.5054   186
13.5154   176
13.5254   179
13.5354   182
13.5454   192
13.5554   197
13.5654   186
13.5754   205
13.5854   201
13.5954   187
13.6054   188
13.6154   184
13.6254   198
13.6354   189
13.6454   179
13.6554   201
13.6654   179
13.6754   199
13.6854   200
13.6954   224
13.7054   191
13.7154   198
13.7254   196
13.7354   195
13.7454   200
13.7554   205
13.7654   210
13.7754   212
13.7854   209
13.7954   204
13.8054   203
13.8154   200
13.8254   190
13.8354   189
13.8454   194
13.8554   196
13.8654   201
13.8754   202
13.8854   207
13.8954   207
13.9054   196
13.9154   196
13.9254   200
13.9354   198
13.9454   191
13.9554   188
13.9654   196
13.9754   212
13.9854   220
13.9954   224
14.0054   226
14.0154   224
14.0254   225
14.0354   239
14.0454   256
14.0554   259
14.0654   255
14.0754   281
14.0854   291
14.0954   245
14.1054   303
14.1154   283
14.1254   277
14.1354   310
14.1454   307
14.1554   295
14.1654   342
14.1754   324
14.1854   311
14.1954   294
14.2054   282
14.2154   274
14.2254   277
14.2354   260
14.2454   262
14.2554   249
14.2654   251
14.2754   259
14.2854   246
14.2954   230
14.3054   226
14.3154   221
14.3254   222
14.3354   219
14.3454   211
14.3554   214
14.3654   216
14.3754   207
14.3854   201
14.3954   210
14.4054   215
14.4154   204
14.4254   200
14.4354   206
14.4454   209
14.4554   208
14.4654   196
14.4754   191
14.4854   202
14.4954   199
14.5055   186
14.5155   182
14.5255   183
14.5355   181
14.5455   177
14.5555   176
14.5655   179
14.5755   178
14.5855   180
14.5955   187
14.6055   191
14.6155   192
14.6255   204
14.6355   170
14.6455   174
14.6555   214
14.6655   200
14.6755   173
14.6855   196
14.6955   200
14.7055   190
14.7155   172
14.7255   188
14.7355   194
14.7455   199
14.7555   198
14.7655   187
14.7755   187
14.7855   186
14.7955   167
14.8055   186
14.8155   197
14.8255   192
14.8355   187
14.8455   188
14.8555   192
14.8655   186
14.8755   180
14.8855   191
14.8955   196
14.9055   188
14.9155   186
14.9255   184
14.9355   190
14.9455   205
14.9555   200
14.9655   182
14.9755   177
14.9855   178
14.9955   176
15.0055   178
15.0155   177
15.0255   178
15.0355   183
15.0455   182
15.0555   177
15.0655   176
15.0755   178
15.0855   182
15.0955   191
15.1055   203
15.1155   206
15.1255   193
15.1355   176
15.1455   160
15.1555   157
15.1655   164
15.1755   163
15.1855   181
15.1955   181
15.2055   185
15.2155   182
15.2255   192
15.2355   165
15.2455   172
15.2555   179
15.2655   173
15.2755   209
15.2855   177
15.2955   170
15.3055   197
15.3155   182
15.3255   184
15.3355   186
15.3455   185
15.3555   186
15.3655   176
15.3755   164
15.3855   177
15.3955   183
15.4055   174
15.4155   160
15.4255   181
15.4355   175
15.4455   169
15.4555   174
15.4655   167
15.4755   157
15.4855   175
15.4955   182
15.5056   188
15.5156   202
15.5256   193
15.5356   169
15.5456   167
15.5556   168
15.5656   176
15.5756   190
15.5856   196
15.5956   170
15.6056   178
15.6156   178
15.6256   177
15.6356   166
15.6456   176
15.6556   184
15.6656   167
15.6756   178
15.6856   184
15.6956   192
15.7056   188
15.7156   205
15.7256   198
15.7356   208
15.7456   206
15.7556   198
15.7656   214
15.7756   211
15.7856   224
15.7956   209
15.8056   202
15.8156   227
15.8256   216
15.8356   213
15.8456   191
15.8556   183
15.8656   209
15.8756   208
15.8856   183
15.8956   190
15.9056   195
15.9156   182
15.9256   160
15.9356   163
15.9456   162
15.9556   164
15.9656   172
15.9756   177
15.9856   166
15.9956   157
16.0056   150
16.0156   155
16.0256   164
16.0356   163
16.0456   161
16.0556   160
16.0656   159
16.0756   165
16.0856   166
16.0956   160
16.1056   159
16.1156   162
16.1256   157
16.1356   154
16.1456   159
16.1556   162
16.1656   164
16.1756   165
16.1856   164
16.1956   166
16.2056   165
16.2156   161
16.2256   163
16.2356   164
16.2456   167
16.2556   173
16.2656   175
16.2756   175
16.2856   172
16.2956   167
16.3056   159
16.3156   153
16.3256   161
16.3356   158
16.3456   162
16.3556   146
16.3656   163
16.3756   180
16.3856   168
16.3956   167
16.4056   155
16.4156   147
16.4256   174
16.4356   178
16.4456   162
16.4556   153
16.4656   129
16.4756   136
16.4856   168
16.4956   165
16.5057   153
16.5157   161
16.5257   155
16.5357   159
16.5457   171
16.5557   159
16.5657   161
16.5757   159
16.5857   165
16.5957   156
16.6057   168
16.6157   171
16.6257   167
16.6357   166
16.6457   160
16.6557   156
16.6657   146
16.6757   165
16.6857   157
16.6957   156
16.7057   179
16.7157   177
16.7257   162
16.7357   157
16.7457   149
16.7557   143
16.7657   148
16.7757   132
16.7857   136
16.7957   146
16.8057   149
16.8157   152
16.8257   160
16.8357   151
16.8457   149
16.8557   148
16.8657   143
16.8757   144
16.8857   155
16.8957   146
16.9057   138
16.9157   145
16.9257   156
16.9357   158
16.9457   129
16.9557   144
16.9657   156
16.9757   154
16.9857   168
16.9957   168
17.0057   159
17.0157   141
17.0257   142
17.0357   154
17.0457   158
17.0557   151
17.0657   143
17.0757   142
17.0857   146
17.0957   149
17.1057   169
17.1157   158
17.1257   147
17.1357   149
17.1457   156
17.1557   159
17.1657   152
17.1757   152
17.1857   158
17.1957   156
17.2057   156
17.2157   151
17.2257   121
17.2357   138
17.2457   143
17.2557   143
17.2657   142
17.2757   151
17.2857   133
17.2957   131
17.3057   139
17.3157   152
17.3257   164
17.3357   143
17.3457   134
17.3557   140
17.3657   142
17.3757   148
17.3857   148
17.3957   133
17.4057   136
17.4157   149
17.4257   143
17.4357   142
17.4457   147
17.4557   158
17.4657   164
17.4757   160
17.4857   156
17.4957   142
17.5058   147
17.5158   165
17.5258   151
17.5358   149
17.5458   153
17.5558   164
17.5658   154
17.5758   143
17.5858   172
17.5958   174
17.6058   162
17.6158   156
17.6258   153
17.6358   158
17.6458   157
17.6558   169
17.6658   166
17.6758   159
17.6858   178
17.6958   163
17.7058   170
17.7158   172
17.7258   157
17.7358   155
17.7458   161
17.7558   157
17.7658   163
17.7758   162
17.7858   151
17.7958   156
17.8058   181
17.8158   186
17.8258   174
17.8358   165
17.8458   175
17.8558   176
17.8658   178
17.8758   173
17.8858   165
17.8958   168
17.9058   168
17.9158   167
17.9258   176
17.9358   163
17.9458   169
17.9558   189
17.9658   183
17.9758   171
17.9858   175
17.9958   175
18.0058   186
18.0158   183
18.0258   184
18.0358   172
18.0458   168
18.0558   201
18.0658   197
18.0758   190
18.0858   202
18.0958   196
18.1058   210
18.1158   210
18.1258   203
18.1358   201
18.1458   200
18.1558   215
18.1658   215
18.1758   205
18.1858   216
18.1958   233
18.2058   222
18.2158   229
18.2258   240
18.2358   235
18.2458   240
18.2558   247
18.2658   261
18.2758   267
18.2858   261
18.2958   279
18.3058   284
18.3158   278
18.3258   290
18.3358   300
18.3458   323
18.3558   334
18.3658   316
18.3758   329
18.3858   344
18.3958   358
18.4058   390
18.4158   388
18.4258   400
18.4358   420
18.4458   425
18.4558   446
18.4658   461
18.4758   462
18.4858   485
18.4958   502
18.5059   510
18.5159   506
18.5259   512
18.5359   568
18.5459   603
18.5559   597
18.5659   609
18.5759   651
18.5859   677
18.5959   686
18.6059   704
18.6159   708
18.6259   681
18.6359   702
18.6459   773
18.6559   780
18.6659   743
18.6759   744
18.6859   774
18.6959   804
18.7059   797
18.7159   812
18.7259   842
18.7359   852
18.7459   855
18.7559   843
18.7659   857
18.7759   869
18.7859   864
18.7959   846
18.8059   822
18.8159   820
18.8259   836
18.8359   825
18.8459   807
18.8559   812
18.8659   770
18.8759   756
18.8859   800
18.8959   793
18.9059   747
18.9159   737
18.9259   713
18.9359   685
18.9459   689
18.9559   672
18.9659   653
18.9759   625
18.9859   630
18.9959   618
19.0059   595
19.0159   583
19.0259   564
19.0359   571
19.0459   532
19.0559   483
19.0659   502
19.0759   500
19.0859   472
19.0959   468
19.1059   460
19.1159   445
19.1259   420
19.1359   384
19.1459   362
19.1559   356
19.1659   357
19.1759   365
19.1859   361
19.1959   339
19.2059   320
19.2159   311
19.2259   274
19.2359   274
19.2459   296
19.2559   257
19.2659   242
19.2759   252
19.2859   242
19.2959   236
19.3059   230
19.3159   220
19.3259   206
19.3359   196
19.3459   208
19.3559   212
19.3659   184
19.3759   176
19.3859   192
19.3959   195
19.4059   181
19.4159   182
19.4259   182
19.4359   168
19.4459   161
19.4559   169
19.4659   175
19.4759   165
19.4859   168
19.4959   167
 19.506   178
 19.516   176
 19.526   165
 19.536   147
 19.546   145
 19.556   150
 19.566   133
 19.576   129
 19.586   135
 19.596   130
 19.606   140
 19.616   144
 19.626   129
 19.636   143
 19.646   136
 19.656   125
 19.666   132
 19.676   123
 19.686   123
 19.696   136
 19.706   128
 19.716   111
 19.726   116
 19.736   102
 19.746   105
 19.756   109
 19.766   116
 19.776   117
 19.786   115
 19.796   113
 19.806   109
 19.816   111
 19.826   109
 19.836   106
 19.846   110
 19.856   117
 19.866   109
 19.876   106
 19.886   113
 19.896   112
 19.906   110
 19.916   112
 19.926   110
 19.936   111
 19.946   107
 19.956   118
 19.966   134
 19.976   145
 19.986   147
 19.996   152
 20.006   152
 20.016   150
 20.026   164
 20.036   164
 20.046   181
 20.056   182
 20.066   182
 20.076   198
 20.086   207
 20.096   213
 20.106   222
 20.116   219
 20.126   218
 20.136   238
 20.146   252
 20.156   246
 20.166   258
 20.176   274
 20.186   267
 20.196   254
 20.206   238
 20.216   242
 20.226   266
 20.236   251
 20.246   241
 20.256   238
 20.266   239
 20.276   232
 20.286   216
 20.296   215
 20.306   202
 20.316   192
 20.326   179
 20.336   173
 20.346   160
 20.356   160
 20.366   147
 20.376   134
 20.386   132
 20.396   115
 20.406   112
 20.416   101
 20.426    99
 20.436    99
 20.446   108
 20.456   106
 20.466    99
 20.476    97
 20.486    95
 20.496    80
20.5061    79
20.5161    96
20.5261    94
20.5361    91
20.5461    85
20.5561    86
20.5661    93
20.5761    85
20.5861    88
20.5961    92
20.6061   102
20.6161   100
20.6261   102
20.6361    96
20.6461   100
20.6561   105
20.6661   106
20.6761    97
20.6861    93
20.6961    94
20.7061   115
20.7161   127
20.7261   122
20.7361   109
20.7461   111
20.7561   111
20.7661   128
20.7761   142
20.7861   124
20.7961   123
20.8061   128
20.8161   139
20.8261   129
20.8361   134
20.8461   142
20.8561   145
20.8661   134
20.8761   143
20.8861   131
20.8961   131
20.9061   151
20.9161   149
20.9261   141
20.9361   146
20.9461   144
20.9561   133
20.9661   155
20.9761   157
20.9861   142
20.9961   137
21.0061   144
21.0161   134
21.0261   141
21.0361   150
21.0461   143
21.0561   135
21.0661   136
21.0761   131
21.0861   130
21.0961   131
21.1061   125
21.1161   123
21.1261   123
21.1361   126
21.1461   128
21.1561   118
21.1661   125
21.1761   123
21.1861   118
21.1961   127
21.2061   120
21.2161   125
21.2261   117
21.2361   112
21.2461   104
21.2561    97
21.2661   104
21.2761   104
21.2861   103
21.2961    91
21.3061    94
21.3161    94
21.3261    95
21.3361    86
21.3461    88
21.3561    91
21.3661    87
21.3761    79
21.3861    89
21.3961    91
21.4061    74
21.4161    67
21.4261    71
21.4361    77
21.4461    74
21.4561    57
21.4661    59
21.4761    65
21.4861    75
21.4961    84
21.5062    73
21.5162    69
21.5262    59
21.5362    53
21.5462    58
21.5562    61
21.5662    49
21.5762    53
21.5862    61
21.5962    55
21.6062    58
21.6162    64
21.6262    61
21.6362    50
21.6462    59
21.6562    54
21.6662    52
21.6762    62
21.6862    60
21.6962    40
21.7062    45
21.7162    40
21.7262    52
21.7362    52
21.7462    35
21.7562    49
21.7662    49
21.7762    42
21.7862    36
21.7962    42
21.8062    41
21.8162    39
21.8262    54
21.8362    44
21.8462    36
21.8562    37
21.8662    46
21.8762    33
21.8862    47
21.8962    40
21.9062    35
21.9162    30
21.9262    33
21.9362    29
21.9462    28
21.9562    39
21.9662    40
21.9762    35
21.9862    41
21.9962    32
22.0062    38
22.0162    33
22.0262    39
22.0362    35
22.0462    32
22.0562    29
22.0662    31
22.0762    37
22.0862    34
22.0962    30
22.1062    25
22.1162    29
22.1262    36
22.1362    26
22.1462    31
22.1562    26
22.1662    26
22.1762    26
22.1862    35
22.1962    23
22.2062    25
22.2162    27
22.2262    21
22.2362    29
22.2462    23
22.2562    29
22.2662    27
22.2762    33
22.2862    22
22.2962    34
22.3062    34
22.3162    21
22.3262    33
22.3362    35
22.3462    26
22.3562    24
22.3662    26
22.3762    23
22.3862    28
22.3962    30
22.4062    36
22.4162    34
22.4262    25
22.4362    18
22.4462    24
22.4562    22
22.4662    25
22.4762    24
22.4862    30
22.4962    28
22.5063    26
22.5163    23
22.5263    28
22.5363    25
22.5463    20
22.5563    24
22.5663    27
22.5763    23
22.5863    32
22.5963    25
22.6063    38
22.6163    30
22.6263    31
22.6363    30
22.6463    29
22.6563    30
22.6663    53
22.6763    46
22.6863    31
22.6963    41
22.7063    47
22.7163    38
22.7263    39
22.7363    53
22.7463    44
22.7563    47
22.7663    40
22.7763    37
22.7863    29
22.7963    28
22.8063    36
22.8163    29
22.8263    39
22.8363    29
22.8463    25
22.8563    36
22.8663    27
22.8763    25
22.8863    24
22.8963    27
22.9063    25
22.9163    25
22.9263    25
22.9363    26
22.9463    20
22.9563    19
22.9663    19
22.9763    16
22.9863    21
22.9963    25
23.0063    17
23.0163    25
23.0263    25
23.0363    20
23.0463    18
23.0563    24
23.0663    16
23.0763    16
23.0863    26
23.0963    18
23.1063    12
23.1163    23
23.1263    14
23.1363    17
23.1463    21
23.1563    20
23.1663    21
23.1763    26
23.1863    17
23.1963    22
23.2063    21
23.2163    27
23.2263    31
23.2363    29
23.2463    19
23.2563    18
23.2663    12
23.2763    11
23.2863    16
23.2963    26
23.3063    18
23.3163    18
23.3263    17
23.3363    26
23.3463    16
23.3563    18
23.3663    14
23.3763    11
23.3863    12
23.3963    17
23.4063    12
23.4163    20
23.4263    19
23.4363    14
23.4463    15
23.4563    16
23.4663    17
23.4763    17
23.4863    19
23.4963    12
23.5064    18
23.5164    17
23.5264    21
23.5364    12
23.5464    13
23.5564    12
23.5664    14
23.5764    13
23.5864    21
23.5964    17
23.6064    13
23.6164    15
23.6264    15
23.6364     7
23.6464    12
23.6564    15
23.6664    19
23.6764    21
23.6864     9
23.6964    16
23.7064    14
23.7164    13
23.7264    15
23.7364    13
23.7464    15
23.7564    10
23.7664    14
23.7764    16
23.7864    16
23.7964    19
23.8064    19
23.8164    17
23.8264    15
23.8364    12
23.8464    17
23.8564    14
23.8664    12
23.8764    17
23.8864    13
23.8964    11
23.9064    15
23.9164    10
23.9264    11
23.9364    14
23.9464    16
23.9564    10
23.9664    11
23.9764    11
23.9864    19
23.9964    11
24.0064     9
24.0164    19
24.0264    10
24.0364    14
24.0464    17
24.0564    11
24.0664     6
24.0764    17
24.0864    20
24.0964    21
24.1064    17
24.1164     6
24.1264    19
24.1364    15
24.1464    17
24.1564    19
24.1664     9
24.1764    10
24.1864    23
24.1964    13
24.2064    24
24.2164    22
24.2264    10
24.2364    18
24.2464    13
24.2564    14
24.2664    16
24.2764    15
24.2864    18
24.2964    13
24.3064    11
24.3164    10
24.3264    11
24.3364    13
24.3464    13
24.3564    13
24.3664     7
24.3764    20
24.3864    15
24.3964    13
24.4064    13
24.4164    14
24.4264    13
24.4364     3
24.4464    15
24.4564    13
24.4664     7
24.4764    12
24.4864    14
24.4964     8
24.5065    14
24.5165     7
24.5265    15
24.5365    11
24.5465    11
24.5565    13
24.5665    11
24.5765    17
24.5865     8
24.5965     9
24.6065    13
24.6165    11
24.6265    13
24.6365     9
24.6465     9
24.6565    12
24.6665     7
24.6765     9
24.6865    10
24.6965    18
24.7065    12
24.7165    10
24.7265    14
24.7365     7
24.7465    12
24.7565    13
24.7665    10
24.7765    10
24.7865    17
24.7965    14
24.8065     8
24.8165     8
24.8265    10
24.8365    21
24.8465    17
24.8565    11
24.8665    15
24.8765    21
24.8865    10
24.8965    11
24.9065     8
24.9165     4
24.9265    11
24.9365     8
24.9465    10
24.9565    12
24.9665    11
24.9765     7
24.9865     9
24.9965    10
25.0065     9
25.0165     9
25.0265     7
25.0365    12
25.0465     9
25.0565     6
25.0665     9
25.0765    12
25.0865    12
25.0965    11
25.1065     9
25.1165    12
25.1265    20
25.1365     6
25.1465    11
25.1565     8
25.1665    14
25.1765     5
25.1865    18
25.1965    17
25.2065    12
25.2165    11
25.2265    14
25.2365    10
25.2465    13
25.2565    12
25.2665    13
25.2765     9
25.2865     9
25.2965     6
25.3065    13
25.3165     9
25.3265    10
25.3365     6
25.3465     7
25.3565    10
25.3665    11
25.3765    13
25.3865     5
25.3965     5
25.4065     9
25.4165     5
25.4265     7
25.4365    12
25.4465    13
25.4565     9
25.4665    10
25.4765    10
25.4865     9
25.4965    14
25.5066    10
25.5166     8
25.5266    11
25.5366     9
25.5466    11
25.5566     4
25.5666     9
25.5766     6
25.5866     4
25.5966     3
25.6066     2
25.6166     1
25.6266     5
25.6366     9
25.6466     5
25.6566     7
25.6666     8
25.6766     4
25.6866     8
25.6966     7
25.7066    11
25.7166     8
25.7266     7
25.7366     9
25.7466     9
25.7566     8
25.7666    10
25.7766     9
25.7866     6
25.7966     7
25.8066     9
25.8166    11
25.8266     7
25.8366     2
25.8466     8
25.8566     6
25.8666     7
25.8766     7
25.8866     4
25.8966     4
25.9066     3
25.9166     5
25.9266     8
25.9366     5
25.9466    12
25.9566     7
25.9666     2
25.9766    10
25.9866     6
25.9966     3
26.0066     4
26.0166     5
26.0266     5
26.0366     8
26.0466     4
26.0566     3
26.0666     2
26.0766     3
26.0866     9
26.0966     5
26.1066     6
26.1166     9
26.1266     2
26.1366     2
26.1466     7
26.1566     3
26.1666     9
26.1766     3
26.1866     2
26.1966     9
26.2066    11
26.2166     6
26.2266     9
26.2366     5
26.2466     7
26.2566     5
26.2666     5
26.2766     2
26.2866     8
26.2966     6
26.3066     9
26.3166     7
26.3266     4
26.3366     6
26.3466     5
26.3566     4
26.3666     2
26.3766     4
26.3866     2
26.3966     6
26.4066     9
26.4166     5
26.4266     6
26.4366     4
26.4466     1
26.4566     7
26.4666     8
26.4766     5
26.4866     9
26.4966    11
26.5067    14
26.5167    10
26.5267     7
26.5367     5
26.5467     4
26.5567    10
26.5667     8
26.5767     5
26.5867     2
26.5967     6
26.6067    12
26.6167     5
26.6267    10
26.6367     9
26.6467     8
26.6567     7
26.6667     7
26.6767     7
26.6867    12
26.6967    11
26.7067     6
26.7167     4
26.7267     5
26.7367     3
26.7467     1
26.7567     6
26.7667     5
26.7767     5
26.7867     6
26.7967     6
26.8067     4
26.8167     4
26.8267     7
26.8367     8
26.8467     7
26.8567     8
26.8667     7
26.8767     5
26.8867     8
26.8967     7
26.9067     6
26.9167    10
26.9267    10
26.9367     4
26.9467     4
26.9567     6
26.9667     8
26.9767     5
26.9867     5
26.9967     6
27.0067     5
27.0167     6
27.0267     5
27.0367     1
27.0467     9
27.0567     8
27.0667     7
27.0767     5
27.0867     2
27.0967     4
27.1067     6
27.1167     5
27.1267     5
27.1367     5
27.1467     5
27.1567     9
27.1667     4
27.1767     3
27.1867     7
27.1967     2
27.2067     3
27.2167     3
27.2267     3
27.2367     4
27.2467     5
27.2567     3
27.2667     2
27.2767     3
27.2867     7
27.2967     8
27.3067     6
27.3167     3
27.3267     4
27.3367     1
27.3467     1
27.3567     3
27.3667     3
27.3767     8
27.3867     9
27.3967     7
27.4067     4
27.4167     4
27.4267     4
27.4367     5
27.4467     5
27.4567     5
27.4667     4
27.4767     7
27.4867     4
27.4967     7
27.5068     6
27.5168     5
27.5268     3
27.5368     3
27.5468     8
27.5568     6
27.5668     4
27.5768     7
27.5868     3
27.5968     5
27.6068     4
27.6168     4
27.6268     2
27.6368     3
27.6468     5
27.6568     8
27.6668     7
27.6768     7
27.6868     7
27.6968     7
27.7068     5
27.7168     3
27.7268     4
27.7368     1
27.7468     3
27.7568     3
27.7668     3
27.7768     3
27.7868     2
27.7968     5
27.8068     4
27.8168     2
27.8268     4
27.8368     4
27.8468     2
27.8568     9
27.8668     7
27.8768     4
27.8868     7
27.8968     6
27.9068     4
27.9168     5
27.9268     5
27.9368     7
27.9468     6
27.9568     6
27.9668     5
27.9768     4
27.9868     5
27.9968     2
28.0068     2
28.0168     4
28.0268     6
28.0368     6
28.0468     5
28.0568     7
28.0668     5
28.0768     4
28.0868     5
28.0968     5
28.1068     5
28.1168     4
28.1268     4
28.1368     3
28.1468     1
28.1568     4
28.1668     7
28.1768     5
28.1868     4
28.1968     5
28.2068     3
28.2168     2
28.2268     2
28.2368     7
28.2468     6
28.2568     4
28.2668     3
28.2768     2
28.2868     3
28.2968     3
28.3068     4
28.3168     3
28.3268     6
28.3368     7
28.3468     5
28.3568     7
28.3668     6
28.3768     4
28.3868     3
28.3968     4
28.4068     4
28.4168     5
28.4268     6
28.4368     7
28.4468     4
28.4568     2
28.4668     1
28.4768     5
28.4868     5
28.4968     4
28.5069     4
28.5169     5
28.5269     3
28.5369     2
28.5469     2
28.5569     2
28.5669     4
28.5769     5
28.5869     2
28.5969     3
28.6069     3
28.6169     3
28.6269     3
28.6369     2
28.6469     2
28.6569     2
28.6669     0
28.6769     0
28.6869     0
28.6969     2
28.7069     4
28.7169     4
28.7269     4
28.7369     2
28.7469     2
28.7569     2
28.7669     4
28.7769     4
28.7869     3
28.7969     3
28.8069     5
28.8169     6
28.8269     4
28.8369     1
28.8469     2
28.8569     2
28.8669     3
28.8769     3
28.8869     3
28.8969     4
28.9069     3
28.9169     2
28.9269     1
28.9369     1
28.9469     3
28.9569     5
28.9669     6
28.9769     5
28.9869     5
28.9969     4
29.0069     3
29.0169     2
29.0269     2
29.0369     4
29.0469     2
29.0569     2
29.0669     2
29.0769     2
29.0869     2
29.0969     2
29.1069     3
29.1169     3
29.1269     2
29.1369     3
29.1469     4
29.1569     4
29.1669     3
29.1769     1
29.1869     1
29.1969     3
29.2069     2
29.2169     2
29.2269     2
29.2369     1
29.2469     2
29.2569     2
29.2669     2
29.2769     2
29.2869     2
29.2969     2
29.3069     2
29.3169     2
29.3269     2
29.3369     1
29.3469     1
29.3569     1
29.3669     1
29.3769     3
29.3869     3
29.3969     4
29.4069     6
29.4169     6
29.4269     4
29.4369     2
29.4469     3
29.4569     4
29.4669     2
29.4769     1
29.4869     3
29.4969     5
 29.507     3
 29.517     2
 29.527     3
 29.537     3
 29.547     5
 29.557     6
 29.567     4
 29.577     2
 29.587     1
 29.597     0
 29.607     0
 29.617     1
 29.627     2
 29.637     2
 29.647     3
 29.657     2
 29.667     0
 29.677     1
 29.687     2
 29.697     3
 29.707     3
 29.717     3
 29.727     2
 29.737     2
 29.747     6
 29.757     5
 29.767     2
 29.777     1
 29.787     1
 29.797     2
 29.807     1
 29.817     1
 29.827     2
 29.837     2
 29.847     1
 29.857     2
 29.867     5
 29.877     4
 29.887     0
 29.897     3
 29.907     5
 29.917     2
 29.927     1
 29.937     2
 29.947     2
 29.957     1
 29.967     3
 29.977     4
 29.987     3
 29.997     1
 30.007     2
 30.017     2
 30.027     2
 30.037     2
 30.047     3
 30.057     4
 30.067     5
 30.077     1
 30.087     1
 30.097     1
 30.107     2
 30.117     4
 30.127     2
 30.137     2
 30.147     4
 30.157     4
 30.167     5
 30.177     3
 30.187     1
 30.197     1
 30.207     1
 30.217     1
 30.227     2
 30.237     1
 30.247     1
 30.257     3
 30.267     2
 30.277     1
 30.287     1
 30.297     1
 30.307     3
 30.317     3
 30.327     2
 30.337     3
 30.347     4
 30.357     3
 30.367     1
 30.377     1
 30.387     1
 30.397     2
 30.407     2
 30.417     3
 30.427     3
 30.437     3
 30.447     3
 30.457     1
 30.467     2
 30.477     1
 30.487     1
 30.497     1
30.5071     1
30.5171     0
30.5271     1
30.5371     1
30.5471     1
30.5571     1
30.5671     1
30.5771     1
30.5871     1
30.5971     3
30.6071     3
30.6171     2
30.6271     2
30.6371     3
30.6471     3
30.6571     4
30.6671     3
30.6771     4
30.6871     3
30.6971     0
30.7071     0
30.7171     0
30.7271     2
30.7371     4
30.7471     3
30.7571     2
30.7671     2
30.7771     2
30.7871     0
30.7971     0
30.8071     1
30.8171     2
30.8271     4
30.8371     4
30.8471     2
30.8571     2
30.8671     4
30.8771     4
30.8871     2
30.8971     1
30.9071     2
30.9171     2
30.9271     2
30.9371     2
30.9471     2
30.9571     3
30.9671     3
30.9771     2
30.9871     0
30.9971     1
31.0071     1
31.0171     3
31.0271     4
31.0371     1
31.0471     1
31.0571     1
31.0671     2
31.0771     5
31.0871     5
31.0971     3
31.1071     1
31.1171     3
31.1271     3
31.1371     1
31.1471     2
31.1571     2
31.1671     2
31.1771     1
31.1871     3
31.1971     2
31.2071     1
31.2171     2
31.2271     2
31.2371     3
31.2471     5
31.2571     2
31.2671     2
31.2771     1
31.2871     1
31.2971     2
31.3071     3
31.3171     1
31.3271     3
31.3371     3
31.3471     3
31.3571     2
31.3671     1
31.3771     1
31.3871     3
31.3971     1
31.4071     2
31.4171     2
31.4271     2
31.4371     1
31.4471     2
31.4571     2
31.4671     2
31.4771     2
31.4871     2
31.4971     1
31.5072     1
31.5172     0
31.5272     1
31.5372     2
31.5472     2
31.5572     3
31.5672     3
31.5772     4
31.5872     3
31.5972     2
31.6072     2
31.6172     2
31.6272     1
31.6372     0
31.6472     0
31.6572     2
31.6672     2
31.6772     2
31.6872     1
31.6972     3
31.7072     2
31.7172     3
31.7272     4
31.7372     3
31.7472     3
31.7572     3
31.7672     1
31.7772     1
31.7872     2
31.7972     1
31.8072     3
31.8172     2
31.8272     0
31.8372     2
31.8472     4
31.8572     5
31.8672     3
31.8772     1
31.8872     2
31.8972     0
31.9072     1
31.9172     3
31.9272     3
31.9372     2
31.9472     5
31.9572     2
31.9672     1
31.9772     2
31.9872     4
31.9972     3
32.0072     4
32.0172     2
32.0272     2
32.0372     3
32.0472     0
32.0572     1
32.0672     2
32.0772     2
32.0872     2
32.0972     2
32.1072     2
32.1172     2
32.1272     5
32.1372     5
32.1472     5
32.1572     2
32.1672     4
32.1772     2
32.1872     3
32.1972     5
32.2072     2
32.2172     2
32.2272     3
32.2372     5
32.2472     3
32.2572     3
32.2672     3
32.2772     3
32.2872     5
32.2972     6
32.3072     5
32.3172     2
32.3272     2
32.3372     3
32.3472     4
32.3572     2
32.3672     2
32.3772     2
32.3872     2
32.3972     2
32.4072     3
32.4172     0
32.4272     2
32.4372     1
32.4472     1
32.4572     1
32.4672     1
32.4772     3
32.4872     2
32.4972     2
32.5073     2
32.5173     2
32.5273     1
32.5373     1
32.5473     2
32.5573     1
32.5673     3
32.5773     3
32.5873     2
32.5973     1
32.6073     1
32.6173     1
32.6273     2
32.6373     3
32.6473     1
32.6573     1
32.6673     2
32.6773     1
32.6873     1
32.6973     1
32.7073     1
32.7173     3
32.7273     2
32.7373     1
32.7473     0
32.7573     1
32.7673     1
32.7773     0
32.7873     0
32.7973     1
32.8073     1
32.8173     2
32.8273     1
32.8373     1
32.8473     2
32.8573     1
32.8673     0
32.8773     2
32.8873     1
32.8973     1
32.9073     2
32.9173     1
32.9273     0
32.9373     1
32.9473     1
32.9573     1
32.9673     1
32.9773     1
32.9873     1
32.9973     0
33.0073     1
33.0173     1
33.0273     2
33.0373     2
33.0473     1
33.0573     1
33.0673     1
33.0773     3
33.0873     2
33.0973     1
33.1073     1
33.1173     1
33.1273     3
33.1373     1
33.1473     1
33.1573     1
33.1673     1
33.1773     1
33.1873     1
33.1973     0
33.2073     1
33.2173     0
33.2273     0
33.2373     0
33.2473     1
33.2573     1
33.2673     1
33.2773     0
33.2873     1
33.2973     0
33.3073     2
33.3173     1
33.3273     1
33.3373     1
33.3473     1
33.3573     0
33.3673     2
33.3773     1
33.3873     1
33.3973     0
33.4073     1
33.4173     0
33.4273     1
33.4373     1
33.4473     0
33.4573     0
33.4673     1
33.4773     0
33.4873     1
33.4973     0
33.5074     1
33.5174     1
33.5274     0
33.5374     1
33.5474     1
33.5574     0
33.5674     1
33.5774     1
33.5874     2
33.5974     1
33.6074     0
33.6174     1
33.6274     2
33.6374     2
33.6474     1
33.6574     0
33.6674     1
33.6774     0
33.6874     1
33.6974     0
33.7074     0
33.7174     1
33.7274     0
33.7374     1
33.7474     3
33.7574     2
33.7674     0
33.7774     1
33.7874     0
33.7974     1
33.8074     1
33.8174     1
33.8274     0
33.8374     1
33.8474     1
33.8574     1
33.8674     0
33.8774     1
33.8874     1
33.8974     1
33.9074     1
33.9174     0
33.9274     0
33.9374     1
33.9474     0
33.9574     1
33.9674     2
33.9774     1
33.9874     1
33.9974     2
34.0074     2
34.0174     1
34.0274     0
34.0374     1
34.0474     1
34.0574     2
34.0674     2
34.0774     2
34.0874     0
34.0974     0
34.1074     0
34.1174     0
34.1274     0
34.1374     1
34.1474     1
34.1574     0
34.1674     1
34.1774     0
34.1874     0
34.1974     1
34.2074     0
34.2174     0
34.2274     1
34.2374     1
34.2474     1
34.2574     1
34.2674     0
34.2774     0
34.2874     1
34.2974     0
34.3074     1
34.3174     0
34.3274     0
34.3374     1
34.3474     1
34.3574     0
34.3674     0
34.3774     0
34.3874     1
34.3974     1
34.4074     1
34.4174     1
34.4274     0
34.4374     0
34.4474     0
34.4574     1
34.4674     0
34.4774     0
34.4874     0
34.4974     1
34.5075     0
34.5175     1
34.5275     1
34.5375     0
34.5475     1
34.5575     1
34.5675     0
34.5775     1
34.5875     1
34.5975     0
34.6075     1
34.6175     0
34.6275     0
34.6375     0
34.6475     1
34.6575     0
34.6675     0
34.6775     0
34.6875     0
34.6975     0
34.7075     1
34.7175     2
34.7275     0
34.7375     0
34.7475     0
34.7575     0
34.7675     0
34.7775     0
34.7875     1
34.7975     1
34.8075     2
34.8175     1
34.8275     0
34.8375     2
34.8475     1
34.8575     1
34.8675     0
34.8775     0
34.8875     0
34.8975     0
34.9075     1
34.9175     0
34.9275     1
34.9375     2
34.9475     1
34.9575     3
34.9675     1
34.9775     1
34.9875     2
34.9975     1
35.0075     0
35.0175     0
35.0275     0
35.0375     0
35.0475     1
35.0575     1
35.0675     0
35.0775     1
35.0875     1
35.0975     0
35.1075     1
35.1175     0
35.1275     1
35.1375     0
35.1475     1
35.1575     1
35.1675     0
35.1775     0
35.1875     1
35.1975     0
35.2075     1
35.2175     1
35.2275     0
35.2375     0
35.2475     0
35.2575     0
35.2675     1
35.2775     0
35.2875     1
35.2975     2
35.3075     1
35.3175     0
35.3275     1
35.3375     2
35.3475     1
35.3575     1
35.3675     2
35.3775     1
35.3875     1
35.3975     1
35.4075     0
35.4175     1
35.4275     1
35.4375     1
35.4475     1
35.4575     0
35.4675     1
35.4775     1
35.4875     0
35.4975     1
35.5076     0
35.5176     0
35.5276     0
35.5376     1
35.5476     1
35.5576     0
35.5676     1
35.5776     0
35.5876     0
35.5976     1
35.6076     0
35.6176     0
35.6276     1
35.6376     0
35.6476     1
35.6576     0
35.6676     0
35.6776     0
35.6876     0
35.6976     1
35.7076     1
35.7176     0
35.7276     1
35.7376     1
35.7476     1
35.7576     1
35.7676     0
35.7776     0
35.7876     0
35.7976     0
35.8076     0
35.8176     1
35.8276     0
35.8376     1
35.8476     2
35.8576     3
35.8676     1
35.8776     1
35.8876     0
35.8976     0
35.9076     0
35.9176     1
35.9276     1
35.9376     0
35.9476     1
35.9576     2
35.9676     1
35.9776     0
35.9876     0
35.9976     1
36.0076     1
36.0176     2
36.0276     1
36.0376     0
36.0476     1
36.0576     2
36.0676     1
36.0776     0
36.0876     0
36.0976     0
36.1076     1
36.1176     1
36.1276     0
36.1376     0
36.1476     0
36.1576     0
36.1676     0
36.1776     0
36.1876     0
36.1976     0
36.2076     1
36.2176     1
36.2276     0
36.2376     0
36.2476     1
36.2576     1
36.2676     1
36.2776     0
36.2876     1
36.2976     1
36.3076     0
36.3176     0
36.3276     1
36.3376     1
36.3476     2
36.3576     1
36.3676     1
36.3776     1
36.3876     1
36.3976     2
36.4076     1
36.4176     2
36.4276     1
36.4376     1
36.4476     1
36.4576     2
36.4676     1
36.4776     1
36.4876     0
36.4976     1
36.5077     0
36.5177     1
36.5277     1
36.5377     0
36.5477     0
36.5577     0
36.5677     0
36.5777     0
36.5877     1
36.5977     1
36.6077     1
36.6177     0
36.6277     0
36.6377     1
36.6477     1
36.6577     0
36.6677     1
36.6777     0
36.6877     0
36.6977     0
36.7077     0
36.7177     0
36.7277     1
36.7377     1
36.7477     0
36.7577     1
36.7677     0
36.7777     0
36.7877     0
36.7977     1
36.8077     0
36.8177     0
36.8277     1
36.8377     0
36.8477     0
36.8577     0
36.8677     0
36.8777     0
36.8877     0
36.8977     0
36.9077     0
36.9177     0
36.9277     1
36.9377     1
36.9477     1
36.9577     0
36.9677     0
36.9777     1
36.9877     1
36.9977     0
37.0077     1
37.0177     1
37.0277     0
37.0377     1
37.0477     1
37.0577     1
37.0677     1
37.0777     0
37.0877     1
37.0977     0
37.1077     0
37.1177     1
37.1277     1
37.1377     0
37.1477     1
37.1577     0
37.1677     0
37.1777     0
37.1877     0
37.1977     0
37.2077     1
37.2177     1
37.2277     0
37.2377     0
37.2477     0
37.2577     0
37.2677     0
37.2777     0
37.2877     0
37.2977     1
37.3077     0
37.3177     1
37.3277     1
37.3377     1
37.3477     0
37.3577     0
37.3677     0
37.3777     0
37.3877     0
37.3977     1
37.4077     1
37.4177     0
37.4277     0
37.4377     0
37.4477     0
37.4577     1
37.4677     1
37.4777     1
37.4877     1
37.4977     0
37.5078     0
37.5178     0
37.5278     0
37.5378     1
37.5478     0
37.5578     1
37.5678     1
37.5778     0
37.5878     0
37.5978     0
37.6078     0
37.6178     0
37.6278     1
37.6378     0
37.6478     1
37.6578     0
37.6678     0
37.6778     1
37.6878     1
37.6978     0
37.7078     0
37.7178     1
37.7278     0
37.7378     0
37.7478     0
37.7578     1
37.7678     1
37.7778     0
37.7878     0
37.7978     0
37.8078     0
37.8178     0
37.8278     1
37.8378     1
37.8478     0
37.8578     1
37.8678     0
37.8778     1
37.8878     0
37.8978     1
37.9078     1
37.9178     1
37.9278     0
37.9378     0
37.9478     1
37.9578     0
37.9678     0
37.9778     0
37.9878     1
37.9978     0
38.0078     0
38.0178     0
38.0278     1
38.0378     1
38.0478     0
38.0578     0
38.0678     0
38.0778     0
38.0878     1
38.0978     0
38.1078     0
38.1178     1
38.1278     0
38.1378     0
38.1478     0
38.1578     1
38.1678     0
38.1778     1
38.1878     1
38.1978     0
38.2078     0
38.2178     0
38.2278     0
38.2378     0
38.2478     0
38.2578     0
38.2678     1
38.2778     1
38.2878     0
38.2978     0
38.3078     1
38.3178     1
38.3278     2
38.3378     1
38.3478     0
38.3578     0
38.3678     0
38.3778     1
38.3878     0
38.3978     0
38.4078     0
38.4178     0
38.4278     0
38.4378     0
38.4478     1
38.4578     1
38.4678     0
38.4778     0
38.4878     0
38.4978     0
38.5079     0
38.5179     0
38.5279     0
38.5379     0
38.5479     1
38.5579     0
38.5679     1
38.5779     1
38.5879     0
38.5979     0
38.6079     1
38.6179     0
38.6279     1
38.6379     0
38.6479     0
38.6579     0
38.6679     0
38.6779     0
38.6879     1
38.6979     0
38.7079     0
38.7179     0
38.7279     0
38.7379     0
38.7479     0
38.7579     0
38.7679     0
38.7779     0
38.7879     1
38.7979     1
38.8079     0
38.8179     0
38.8279     0
38.8379     0
38.8479     1
38.8579     0
38.8679     1
38.8779     0
38.8879     1
38.8979     0
38.9079     0
38.9179     0
38.9279     1
38.9379     0
38.9479     0
38.9579     0
38.9679     0
38.9779     0
38.9879     0
38.9979     0
39.0079     0
39.0179     0
39.0279     0
39.0379     0
39.0479     0
39.0579     0
39.0679     0
39.0779     0
39.0879     0
39.0979     0
39.1079     0
39.1179     0
39.1279     0
39.1379     0
39.1479     0
39.1579     0
39.1679     0
39.1779     1
39.1879     0
39.1979     0
39.2079     1
39.2179     0
39.2279     0
39.2379     0
39.2479     0
39.2579     0
39.2679     0
39.2779     0
39.2879     0
39.2979     1
39.3079     0
39.3179     0
39.3279     0
39.3379     0
39.3479     1
39.3579     0
39.3679     0
39.3779     0
39.3879     1
39.3979     0
39.4079     0
39.4179     0
39.4279     0
39.4379     1
39.4479     1
39.4579     0
39.4679     0
39.4779     0
39.4879     0
39.4979     0
 39.508     1
 39.518     0
 39.528     1
 39.538     0
 39.548     0
 39.558     0
 39.568     0
 39.578     0
 39.588     0
 39.598     0
 39.608     0
 39.618     1
 39.628     0
 39.638     0
 39.648     0
 39.658     0
 39.668     0
 39.678     1
 39.688     0
 39.698     0
 39.708     0
 39.718     0
 39.728     0
 39.738     0
 39.748     0
 39.758     0
 39.768     0
 39.778     1
 39.788     1
 39.798     0
 39.808     0
 39.818     1
 39.828     1
 39.838     0
 39.848     0
 39.858     0
 39.868     0
 39.878     0
 39.888     0
 39.898     0
 39.908     0
 39.918     0
 39.928     0
 39.938     0
 39.948     1
 39.958     0
 39.968     0
 39.978     0
 39.988     0
 39.998     0
