Bruker Nano GmbH Berlin, Germany
Esprit 1.9

Date: 4/5/2021 6:25:55 PM
Real time: 31906
Life time: 29999
Pulse density: 29306


Detector type: XFlash 430
Window type: Custom type
Detector thickness: 0.45
Si dead layer:0.029

Calibration, lin.: 10.001
Calibration, abs.: -956.096
Mn FWHM: 143.683
Fano factor: 0.114
Channels: 4096

Energy Counts
-0.9561     0
-0.9461     0
-0.9361     0
-0.9261     0
-0.9161     0
-0.9061     0
-0.8961     0
-0.8861     0
-0.8761     0
-0.8661     0
-0.8561     0
-0.8461     0
-0.8361     0
-0.8261     0
-0.8161     0
-0.8061     0
-0.7961     0
-0.7861     0
-0.7761     0
-0.7661     0
-0.7561     0
-0.7461     0
-0.7361     0
-0.7261     0
-0.7161     0
-0.7061     0
-0.6961     0
-0.6861     0
-0.6761     0
-0.6661     0
-0.6561     0
-0.6461     0
-0.6361     0
-0.6261     0
-0.6161     0
-0.6061     0
-0.5961     0
-0.5861     0
-0.5761     0
-0.5661     0
-0.5561     0
-0.5461     0
-0.5361     0
-0.5261     0
-0.5161     0
-0.5061     0
 -0.496     0
 -0.486     0
 -0.476     0
 -0.466     0
 -0.456     0
 -0.446     0
 -0.436     0
 -0.426     0
 -0.416     0
 -0.406     0
 -0.396     0
 -0.386     0
 -0.376     0
 -0.366     0
 -0.356     0
 -0.346     0
 -0.336     0
 -0.326     0
 -0.316     0
 -0.306     0
 -0.296     0
 -0.286     0
 -0.276     0
 -0.266     1
 -0.256     1
 -0.246     0
 -0.236     2
 -0.226     2
 -0.216     2
 -0.206     2
 -0.196     6
 -0.186     1
 -0.176     4
 -0.166     0
 -0.156     3
 -0.146     7
 -0.136    12
 -0.126    34
 -0.116    86
 -0.106   217
 -0.096   589
 -0.086  1357
 -0.076  2740
 -0.066  5174
 -0.056  9085
 -0.046 14293
 -0.036 20416
 -0.026 27292
 -0.016 32485
 -0.006 35291
  0.004 35274
  0.014 32327
  0.024 27350
  0.034 20612
  0.044 14468
  0.054  9102
  0.064  5326
  0.074  2891
  0.084  1398
  0.094   597
  0.104   239
  0.114    90
  0.124    21
  0.134    14
  0.144     3
  0.154     2
  0.164     2
  0.174     0
  0.184     2
  0.194    -1
  0.204     3
  0.214     1
  0.224     0
  0.234    -1
  0.244     0
  0.254     0
  0.264     0
  0.274     1
  0.284     0
  0.294     1
  0.304    12
  0.314    39
  0.324    39
  0.334    47
  0.344    42
  0.354    36
  0.364    39
  0.374    43
  0.384    37
  0.394    46
  0.404    38
  0.414    41
  0.424    25
  0.434    28
  0.444    48
  0.454    28
  0.464    36
  0.474    41
  0.484    45
  0.494    39
 0.5041    32
 0.5141    35
 0.5241    23
 0.5341    33
 0.5441    39
 0.5541    37
 0.5641    42
 0.5741    28
 0.5841    32
 0.5941    37
 0.6041    35
 0.6141    36
 0.6241    40
 0.6341    36
 0.6441    40
 0.6541    30
 0.6641    33
 0.6741    36
 0.6841    26
 0.6941    32
 0.7041    37
 0.7141    26
 0.7241    23
 0.7341    26
 0.7441    29
 0.7541    27
 0.7641    26
 0.7741    22
 0.7841    39
 0.7941    27
 0.8041    30
 0.8141    41
 0.8241    19
 0.8341    27
 0.8441    32
 0.8541    20
 0.8641    37
 0.8741    21
 0.8841    21
 0.8941    23
 0.9041    27
 0.9141    20
 0.9241    28
 0.9341    21
 0.9441    31
 0.9541    26
 0.9641    30
 0.9741    27
 0.9841    21
 0.9941    27
 1.0041    30
 1.0141    26
 1.0241    28
 1.0341    31
 1.0441    20
 1.0541    24
 1.0641    29
 1.0741    27
 1.0841    19
 1.0941    15
 1.1041    25
 1.1141    24
 1.1241    23
 1.1341    18
 1.1441    29
 1.1541    22
 1.1641    19
 1.1741    21
 1.1841    26
 1.1941    24
 1.2041    22
 1.2141    20
 1.2241    19
 1.2341    23
 1.2441    20
 1.2541    17
 1.2641    23
 1.2741    28
 1.2841    24
 1.2941    20
 1.3041    21
 1.3141    22
 1.3241    22
 1.3341    21
 1.3441    18
 1.3541    19
 1.3641    18
 1.3741    22
 1.3841    19
 1.3941    13
 1.4041    21
 1.4141    23
 1.4241    20
 1.4341    17
 1.4441    13
 1.4541    13
 1.4641    19
 1.4741    16
 1.4841    18
 1.4941    14
 1.5042    22
 1.5142    16
 1.5242    19
 1.5342    12
 1.5442    16
 1.5542    10
 1.5642    18
 1.5742    15
 1.5842    14
 1.5942    11
 1.6042     9
 1.6142     7
 1.6242    16
 1.6342    10
 1.6442    17
 1.6542    15
 1.6642     9
 1.6742    11
 1.6842    11
 1.6942    17
 1.7042    14
 1.7142    10
 1.7242    16
 1.7342    13
 1.7442    14
 1.7542     8
 1.7642    15
 1.7742    14
 1.7842    17
 1.7942    18
 1.8042    18
 1.8142    22
 1.8242    18
 1.8342    22
 1.8442    23
 1.8542    23
 1.8642    25
 1.8742    12
 1.8842    16
 1.8942    10
 1.9042    16
 1.9142    17
 1.9242    20
 1.9342     8
 1.9442     7
 1.9542    20
 1.9642    18
 1.9742    18
 1.9842    17
 1.9942    15
 2.0042    14
 2.0142    11
 2.0242    11
 2.0342    17
 2.0442    17
 2.0542    10
 2.0642    12
 2.0742    11
 2.0842    15
 2.0942    10
 2.1042    15
 2.1142    12
 2.1242    17
 2.1342    19
 2.1442    21
 2.1542    23
 2.1642    13
 2.1742    19
 2.1842    21
 2.1942    21
 2.2042    19
 2.2142    20
 2.2242    26
 2.2342    38
 2.2442    52
 2.2542    61
 2.2642    92
 2.2742   133
 2.2842   158
 2.2942   205
 2.3042   293
 2.3142   347
 2.3242   390
 2.3342   436
 2.3442   476
 2.3542   509
 2.3642   526
 2.3742   541
 2.3842   557
 2.3942   545
 2.4042   511
 2.4142   535
 2.4242   516
 2.4342   505
 2.4442   478
 2.4542   429
 2.4642   416
 2.4742   377
 2.4842   348
 2.4942   301
 2.5043   252
 2.5143   200
 2.5243   170
 2.5343   121
 2.5443    84
 2.5543    67
 2.5643    78
 2.5743    59
 2.5843    42
 2.5943    48
 2.6043    42
 2.6143    43
 2.6243    52
 2.6343    60
 2.6443    66
 2.6543    71
 2.6643    78
 2.6743    72
 2.6843    86
 2.6943    70
 2.7043    64
 2.7143    68
 2.7243    51
 2.7343    48
 2.7443    43
 2.7543    43
 2.7643    42
 2.7743    36
 2.7843    40
 2.7943    38
 2.8043    35
 2.8143    33
 2.8243    55
 2.8343    62
 2.8443    55
 2.8543    73
 2.8643    99
 2.8743   123
 2.8843   154
 2.8943   201
 2.9043   244
 2.9143   277
 2.9243   312
 2.9343   342
 2.9443   356
 2.9543   409
 2.9643   444
 2.9743   383
 2.9843   385
 2.9943   350
 3.0043   298
 3.0143   247
 3.0243   213
 3.0343   183
 3.0443   119
 3.0543   100
 3.0643    88
 3.0743    53
 3.0843    59
 3.0943    54
 3.1043    57
 3.1143    58
 3.1243    53
 3.1343    67
 3.1443    64
 3.1543    66
 3.1643    64
 3.1743    81
 3.1843    83
 3.1943    72
 3.2043    74
 3.2143    73
 3.2243    54
 3.2343    51
 3.2443    53
 3.2543    42
 3.2643    40
 3.2743    35
 3.2843    33
 3.2943    35
 3.3043    30
 3.3143    26
 3.3243    29
 3.3343    31
 3.3443    31
 3.3543    20
 3.3643    15
 3.3743    17
 3.3843    22
 3.3943    17
 3.4043    17
 3.4143    13
 3.4243    20
 3.4343    19
 3.4443    11
 3.4543    14
 3.4643    16
 3.4743    12
 3.4843    14
 3.4943    16
 3.5044    27
 3.5144    35
 3.5244    37
 3.5344    50
 3.5444    75
 3.5544   114
 3.5644   175
 3.5744   252
 3.5844   368
 3.5944   526
 3.6044   812
 3.6144  1032
 3.6244  1360
 3.6344  1793
 3.6444  2137
 3.6544  2540
 3.6644  2932
 3.6744  3191
 3.6844  3460
 3.6944  3495
 3.7044  3519
 3.7144  3334
 3.7244  3096
 3.7344  2773
 3.7444  2391
 3.7544  1953
 3.7644  1551
 3.7744  1126
 3.7844   839
 3.7944   651
 3.8044   456
 3.8144   345
 3.8244   211
 3.8344   145
 3.8444   114
 3.8544    93
 3.8644    83
 3.8744    63
 3.8844    64
 3.8944    76
 3.9044    92
 3.9144   129
 3.9244   172
 3.9344   214
 3.9444   234
 3.9544   303
 3.9644   345
 3.9744   422
 3.9844   482
 3.9944   523
 4.0044   543
 4.0144   577
 4.0244   620
 4.0344   588
 4.0444   541
 4.0544   503
 4.0644   420
 4.0744   334
 4.0844   285
 4.0944   214
 4.1044   162
 4.1144   128
 4.1244   105
 4.1344    70
 4.1444    52
 4.1544    45
 4.1644    32
 4.1744    28
 4.1844    32
 4.1944    17
 4.2044    19
 4.2144    15
 4.2244    12
 4.2344    14
 4.2444    15
 4.2544    19
 4.2644    14
 4.2744    19
 4.2844    21
 4.2944    27
 4.3044    26
 4.3144    19
 4.3244    27
 4.3344    36
 4.3444    49
 4.3544    77
 4.3644   119
 4.3744   182
 4.3844   247
 4.3944   358
 4.4044   510
 4.4144   692
 4.4244   929
 4.4344  1219
 4.4444  1535
 4.4544  1854
 4.4644  2259
 4.4744  2625
 4.4844  2931
 4.4944  3189
 4.5045  3345
 4.5145  3396
 4.5245  3398
 4.5345  3315
 4.5445  3016
 4.5545  2647
 4.5645  2281
 4.5745  1880
 4.5845  1530
 4.5945  1270
 4.6045   980
 4.6145   703
 4.6245   505
 4.6345   363
 4.6445   241
 4.6545   173
 4.6645   128
 4.6745    87
 4.6845    48
 4.6945    46
 4.7045    53
 4.7145    39
 4.7245    39
 4.7345    46
 4.7445    40
 4.7545    51
 4.7645    46
 4.7745    53
 4.7845    58
 4.7945    60
 4.8045    76
 4.8145    99
 4.8245   122
 4.8345   153
 4.8445   194
 4.8545   221
 4.8645   277
 4.8745   322
 4.8845   413
 4.8945   436
 4.9045   492
 4.9145   524
 4.9245   572
 4.9345   577
 4.9445   576
 4.9545   572
 4.9645   540
 4.9745   466
 4.9845   434
 4.9945   390
 5.0045   327
 5.0145   256
 5.0245   207
 5.0345   162
 5.0445   116
 5.0545   100
 5.0645   108
 5.0745    78
 5.0845    58
 5.0945    48
 5.1045    43
 5.1145    37
 5.1245    23
 5.1345    28
 5.1445    37
 5.1545    39
 5.1645    43
 5.1745    47
 5.1845    45
 5.1945    46
 5.2045    52
 5.2145    61
 5.2245    59
 5.2345    71
 5.2445    87
 5.2545   101
 5.2645   162
 5.2745   209
 5.2845   330
 5.2945   419
 5.3045   568
 5.3145   739
 5.3245   989
 5.3345  1287
 5.3445  1574
 5.3545  1871
 5.3645  2263
 5.3745  2627
 5.3845  2944
 5.3945  3090
 5.4045  3288
 5.4145  3329
 5.4245  3404
 5.4345  3265
 5.4445  3001
 5.4545  2792
 5.4645  2478
 5.4745  2158
 5.4845  1765
 5.4945  1420
 5.5046  1160
 5.5146   915
 5.5246   699
 5.5346   580
 5.5446   380
 5.5546   285
 5.5646   208
 5.5746   151
 5.5846   109
 5.5946    77
 5.6046    77
 5.6146    60
 5.6246    60
 5.6346    42
 5.6446    47
 5.6546    47
 5.6646    56
 5.6746    50
 5.6846    44
 5.6946    48
 5.7046    51
 5.7146    63
 5.7246    53
 5.7346    52
 5.7446    60
 5.7546    60
 5.7646    52
 5.7746    59
 5.7846    65
 5.7946    74
 5.8046    84
 5.8146    90
 5.8246   122
 5.8346   164
 5.8446   173
 5.8546   206
 5.8646   247
 5.8746   296
 5.8846   341
 5.8946   367
 5.9046   429
 5.9146   433
 5.9246   478
 5.9346   534
 5.9446   549
 5.9546   531
 5.9646   506
 5.9746   555
 5.9846   491
 5.9946   443
 6.0046   396
 6.0146   362
 6.0246   283
 6.0346   259
 6.0446   230
 6.0546   176
 6.0646   142
 6.0746   120
 6.0846   110
 6.0946   104
 6.1046    76
 6.1146    72
 6.1246    62
 6.1346    69
 6.1446    58
 6.1546    63
 6.1646    73
 6.1746    65
 6.1846    59
 6.1946    59
 6.2046    47
 6.2146    59
 6.2246    64
 6.2346    69
 6.2446    66
 6.2546    77
 6.2646    77
 6.2746    93
 6.2846    95
 6.2946   117
 6.3046   146
 6.3146   153
 6.3246   174
 6.3346   202
 6.3446   221
 6.3546   255
 6.3646   284
 6.3746   284
 6.3846   311
 6.3946   341
 6.4046   323
 6.4146   304
 6.4246   345
 6.4346   314
 6.4446   291
 6.4546   279
 6.4646   222
 6.4746   240
 6.4846   211
 6.4946   175
 6.5047   162
 6.5147   152
 6.5247   113
 6.5347   123
 6.5447   118
 6.5547    99
 6.5647    81
 6.5747    66
 6.5847    72
 6.5947    69
 6.6047    79
 6.6147    75
 6.6247    69
 6.6347    70
 6.6447    61
 6.6547    65
 6.6647    73
 6.6747    73
 6.6847    79
 6.6947    79
 6.7047    66
 6.7147    76
 6.7247    71
 6.7347    70
 6.7447    65
 6.7547    67
 6.7647    62
 6.7747    78
 6.7847    78
 6.7947    67
 6.8047    75
 6.8147    74
 6.8247    77
 6.8347    82
 6.8447    82
 6.8547    81
 6.8647    75
 6.8747    72
 6.8847    91
 6.8947    78
 6.9047    97
 6.9147    93
 6.9247    85
 6.9347    92
 6.9447   103
 6.9547    96
 6.9647   102
 6.9747    95
 6.9847   113
 6.9947   124
 7.0047   111
 7.0147   110
 7.0247   120
 7.0347   138
 7.0447   136
 7.0547   127
 7.0647   130
 7.0747   131
 7.0847   131
 7.0947   141
 7.1047   129
 7.1147   127
 7.1247   125
 7.1347   105
 7.1447   109
 7.1547   114
 7.1647   121
 7.1747   113
 7.1847   114
 7.1947   101
 7.2047    90
 7.2147   109
 7.2247    98
 7.2347    99
 7.2447   105
 7.2547    90
 7.2647    91
 7.2747   107
 7.2847   107
 7.2947   109
 7.3047   108
 7.3147    93
 7.3247    98
 7.3347    89
 7.3447   103
 7.3547   109
 7.3647   111
 7.3747   109
 7.3847   112
 7.3947   105
 7.4047   113
 7.4147   119
 7.4247   117
 7.4347   117
 7.4447   125
 7.4547   109
 7.4647   111
 7.4747   116
 7.4847   115
 7.4947   112
 7.5048   109
 7.5148   112
 7.5248   125
 7.5348   111
 7.5448   106
 7.5548   109
 7.5648   101
 7.5748   106
 7.5848   126
 7.5948   116
 7.6048   108
 7.6148   117
 7.6248   118
 7.6348   126
 7.6448   128
 7.6548   129
 7.6648   138
 7.6748   137
 7.6848   127
 7.6948   122
 7.7048   121
 7.7148   126
 7.7248   128
 7.7348   119
 7.7448   126
 7.7548   142
 7.7648   158
 7.7748   132
 7.7848   117
 7.7948   145
 7.8048   159
 7.8148   139
 7.8248   153
 7.8348   154
 7.8448   142
 7.8548   155
 7.8648   153
 7.8748   152
 7.8848   148
 7.8948   152
 7.9048   147
 7.9148   141
 7.9248   142
 7.9348   148
 7.9448   145
 7.9548   147
 7.9648   160
 7.9748   154
 7.9848   155
 7.9948   164
 8.0048   159
 8.0148   155
 8.0248   163
 8.0348   173
 8.0448   167
 8.0548   157
 8.0648   175
 8.0748   174
 8.0848   169
 8.0948   160
 8.1048   163
 8.1148   155
 8.1248   157
 8.1348   182
 8.1448   173
 8.1548   161
 8.1648   165
 8.1748   178
 8.1848   169
 8.1948   166
 8.2048   180
 8.2148   184
 8.2248   170
 8.2348   169
 8.2448   178
 8.2548   174
 8.2648   164
 8.2748   174
 8.2848   175
 8.2948   160
 8.3048   175
 8.3148   194
 8.3248   178
 8.3348   181
 8.3448   178
 8.3548   170
 8.3648   174
 8.3748   177
 8.3848   197
 8.3948   192
 8.4048   173
 8.4148   185
 8.4248   189
 8.4348   191
 8.4448   206
 8.4548   208
 8.4648   195
 8.4748   206
 8.4848   213
 8.4948   206
 8.5049   201
 8.5149   198
 8.5249   205
 8.5349   212
 8.5449   207
 8.5549   202
 8.5649   206
 8.5749   208
 8.5849   218
 8.5949   221
 8.6049   230
 8.6149   230
 8.6249   224
 8.6349   234
 8.6449   228
 8.6549   215
 8.6649   233
 8.6749   234
 8.6849   222
 8.6949   217
 8.7049   219
 8.7149   224
 8.7249   217
 8.7349   223
 8.7449   225
 8.7549   235
 8.7649   234
 8.7749   239
 8.7849   245
 8.7949   243
 8.8049   251
 8.8149   243
 8.8249   226
 8.8349   231
 8.8449   234
 8.8549   239
 8.8649   233
 8.8749   215
 8.8849   220
 8.8949   243
 8.9049   267
 8.9149   265
 8.9249   261
 8.9349   257
 8.9449   254
 8.9549   238
 8.9649   235
 8.9749   260
 8.9849   285
 8.9949   275
 9.0049   253
 9.0149   260
 9.0249   270
 9.0349   283
 9.0449   296
 9.0549   295
 9.0649   308
 9.0749   339
 9.0849   355
 9.0949   376
 9.1049   385
 9.1149   402
 9.1249   434
 9.1349   466
 9.1449   508
 9.1549   512
 9.1649   520
 9.1749   535
 9.1849   543
 9.1949   560
 9.2049   563
 9.2149   552
 9.2249   539
 9.2349   503
 9.2449   463
 9.2549   443
 9.2649   441
 9.2749   441
 9.2849   412
 9.2949   384
 9.3049   365
 9.3149   359
 9.3249   366
 9.3349   349
 9.3449   310
 9.3549   322
 9.3649   326
 9.3749   318
 9.3849   311
 9.3949   299
 9.4049   299
 9.4149   306
 9.4249   290
 9.4349   302
 9.4449   316
 9.4549   303
 9.4649   304
 9.4749   309
 9.4849   289
 9.4949   288
  9.505   324
  9.515   321
  9.525   342
  9.535   325
  9.545   319
  9.555   313
  9.565   307
  9.575   302
  9.585   299
  9.595   309
  9.605   321
  9.615   306
  9.625   313
  9.635   323
  9.645   322
  9.655   352
  9.665   336
  9.675   334
  9.685   332
  9.695   343
  9.705   345
  9.715   311
  9.725   335
  9.735   331
  9.745   303
  9.755   330
  9.765   356
  9.775   330
  9.785   339
  9.795   361
  9.805   340
  9.815   342
  9.825   342
  9.835   332
  9.845   360
  9.855   357
  9.865   333
  9.875   346
  9.885   355
  9.895   349
  9.905   350
  9.915   336
  9.925   332
  9.935   324
  9.945   333
  9.955   342
  9.965   342
  9.975   358
  9.985   368
  9.995   353
 10.005   370
 10.015   368
 10.025   369
 10.035   374
 10.045   351
 10.055   366
 10.065   381
 10.075   394
 10.085   386
 10.095   372
 10.105   380
 10.115   374
 10.125   398
 10.135   396
 10.145   404
 10.155   401
 10.165   371
 10.175   379
 10.185   427
 10.195   426
 10.205   411
 10.215   391
 10.225   401
 10.235   447
 10.245   473
 10.255   461
 10.265   470
 10.275   465
 10.285   436
 10.295   471
 10.305   498
 10.315   530
 10.325   544
 10.335   609
 10.345   675
 10.355   795
 10.365   862
 10.375   930
 10.385  1069
 10.395  1221
 10.405  1398
 10.415  1599
 10.425  1796
 10.435  2022
 10.445  2319
 10.455  2606
 10.465  2887
 10.475  3218
 10.485  3543
 10.495  3852
10.5051  4174
10.5151  4494
10.5251  4725
10.5351  4920
10.5451  5098
10.5551  4998
10.5651  5049
10.5751  5045
10.5851  4855
10.5951  4608
10.6051  4307
10.6151  3929
10.6251  3579
10.6351  3281
10.6451  2948
10.6551  2619
10.6651  2264
10.6751  1976
10.6851  1646
10.6951  1413
10.7051  1260
10.7151  1071
10.7251   931
10.7351   814
10.7451   688
10.7551   657
10.7651   606
10.7751   533
10.7851   529
10.7951   504
10.8051   495
10.8151   501
10.8251   482
10.8351   453
10.8451   468
10.8551   466
10.8651   464
10.8751   464
10.8851   466
10.8951   450
10.9051   484
10.9151   465
10.9251   453
10.9351   470
10.9451   458
10.9551   448
10.9651   463
10.9751   455
10.9851   468
10.9951   464
11.0051   453
11.0151   460
11.0251   472
11.0351   459
11.0451   441
11.0551   466
11.0651   487
11.0751   460
11.0851   483
11.0951   463
11.1051   458
11.1151   467
11.1251   472
11.1351   466
11.1451   458
11.1551   459
11.1651   464
11.1751   472
11.1851   469
11.1951   478
11.2051   491
11.2151   462
11.2251   454
11.2351   465
11.2451   481
11.2551   504
11.2651   502
11.2751   491
11.2851   489
11.2951   488
11.3051   493
11.3151   533
11.3251   539
11.3351   539
11.3451   504
11.3551   529
11.3651   554
11.3751   530
11.3851   481
11.3951   486
11.4051   507
11.4151   505
11.4251   510
11.4351   500
11.4451   529
11.4551   495
11.4651   503
11.4751   480
11.4851   486
11.4951   498
11.5052   516
11.5152   493
11.5252   463
11.5352   467
11.5452   500
11.5552   487
11.5652   506
11.5752   470
11.5852   466
11.5952   467
11.6052   472
11.6152   487
11.6252   456
11.6352   462
11.6452   480
11.6552   509
11.6652   501
11.6752   475
11.6852   486
11.6952   507
11.7052   501
11.7152   490
11.7252   481
11.7352   518
11.7452   467
11.7552   478
11.7652   468
11.7752   485
11.7852   534
11.7952   481
11.8052   481
11.8152   460
11.8252   483
11.8352   492
11.8452   485
11.8552   449
11.8652   465
11.8752   469
11.8852   483
11.8952   476
11.9052   497
11.9152   490
11.9252   514
11.9352   505
11.9452   486
11.9552   537
11.9652   480
11.9752   482
11.9852   492
11.9952   513
12.0052   497
12.0152   518
12.0252   504
12.0352   558
12.0452   536
12.0552   549
12.0652   519
12.0752   533
12.0852   565
12.0952   573
12.1052   565
12.1152   562
12.1252   573
12.1352   563
12.1452   601
12.1552   610
12.1652   592
12.1752   607
12.1852   625
12.1952   619
12.2052   625
12.2152   614
12.2252   591
12.2352   621
12.2452   647
12.2552   663
12.2652   626
12.2752   663
12.2852   642
12.2952   673
12.3052   655
12.3152   677
12.3252   649
12.3352   697
12.3452   689
12.3552   630
12.3652   679
12.3752   626
12.3852   620
12.3952   637
12.4052   673
12.4152   691
12.4252   687
12.4352   764
12.4452   759
12.4552   859
12.4652   935
12.4752  1014
12.4852  1147
12.4952  1214
12.5053  1376
12.5153  1452
12.5253  1676
12.5353  1908
12.5453  2118
12.5553  2274
12.5653  2473
12.5753  2628
12.5853  2786
12.5953  2952
12.6053  2997
12.6153  3079
12.6253  3151
12.6353  3054
12.6453  3050
12.6553  3054
12.6653  2925
12.6753  2593
12.6853  2572
12.6953  2453
12.7053  2298
12.7153  2065
12.7253  1882
12.7353  1654
12.7453  1571
12.7553  1422
12.7653  1261
12.7753  1129
12.7853  1077
12.7953   955
12.8053   919
12.8153   891
12.8253   818
12.8353   737
12.8453   686
12.8553   685
12.8653   698
12.8753   648
12.8853   613
12.8953   650
12.9053   660
12.9153   585
12.9253   585
12.9353   577
12.9453   576
12.9553   579
12.9653   588
12.9753   580
12.9853   545
12.9953   565
13.0053   555
13.0153   549
13.0253   561
13.0353   542
13.0453   543
13.0553   517
13.0653   544
13.0753   506
13.0853   536
13.0953   480
13.1053   517
13.1153   484
13.1253   479
13.1353   483
13.1453   461
13.1553   453
13.1653   482
13.1753   433
13.1853   412
13.1953   427
13.2053   420
13.2153   454
13.2253   447
13.2353   443
13.2453   456
13.2553   448
13.2653   410
13.2753   480
13.2853   483
13.2953   407
13.3053   418
13.3153   435
13.3253   433
13.3353   423
13.3453   427
13.3553   438
13.3653   433
13.3753   399
13.3853   431
13.3953   431
13.4053   414
13.4153   437
13.4253   468
13.4353   438
13.4453   413
13.4553   387
13.4653   407
13.4753   434
13.4853   399
13.4953   407
13.5054   403
13.5154   407
13.5254   400
13.5354   413
13.5454   371
13.5554   386
13.5654   444
13.5754   424
13.5854   399
13.5954   412
13.6054   368
13.6154   403
13.6254   410
13.6354   408
13.6454   384
13.6554   421
13.6654   377
13.6754   406
13.6854   428
13.6954   376
13.7054   392
13.7154   429
13.7254   419
13.7354   421
13.7454   405
13.7554   413
13.7654   449
13.7754   409
13.7854   378
13.7954   409
13.8054   414
13.8154   378
13.8254   426
13.8354   377
13.8454   378
13.8554   402
13.8654   394
13.8754   352
13.8854   375
13.8954   410
13.9054   383
13.9154   375
13.9254   416
13.9354   418
13.9454   420
13.9554   418
13.9654   392
13.9754   396
13.9854   418
13.9954   401
14.0054   380
14.0154   416
14.0254   441
14.0354   440
14.0454   405
14.0554   408
14.0654   402
14.0754   417
14.0854   421
14.0954   410
14.1054   447
14.1154   413
14.1254   433
14.1354   396
14.1454   400
14.1554   418
14.1654   444
14.1754   426
14.1854   448
14.1954   437
14.2054   422
14.2154   402
14.2254   429
14.2354   403
14.2454   422
14.2554   406
14.2654   410
14.2754   422
14.2854   406
14.2954   422
14.3054   425
14.3154   388
14.3254   374
14.3354   366
14.3454   366
14.3554   408
14.3654   397
14.3754   368
14.3854   376
14.3954   394
14.4054   380
14.4154   371
14.4254   360
14.4354   347
14.4454   364
14.4554   365
14.4654   367
14.4754   376
14.4854   371
14.4954   360
14.5055   371
14.5155   338
14.5255   372
14.5355   350
14.5455   359
14.5555   353
14.5655   375
14.5755   371
14.5855   343
14.5955   355
14.6055   376
14.6155   404
14.6255   457
14.6355   438
14.6455   451
14.6555   481
14.6655   464
14.6755   502
14.6855   518
14.6955   527
14.7055   538
14.7155   561
14.7255   572
14.7355   553
14.7455   594
14.7555   628
14.7655   622
14.7755   627
14.7855   603
14.7955   594
14.8055   607
14.8155   624
14.8255   577
14.8355   576
14.8455   535
14.8555   543
14.8655   514
14.8755   508
14.8855   447
14.8955   458
14.9055   440
14.9155   423
14.9255   391
14.9355   421
14.9455   383
14.9555   363
14.9655   356
14.9755   336
14.9855   364
14.9955   352
15.0055   368
15.0155   338
15.0255   380
15.0355   368
15.0455   339
15.0555   402
15.0655   380
15.0755   379
15.0855   389
15.0955   371
15.1055   383
15.1155   383
15.1255   375
15.1355   356
15.1455   384
15.1555   412
15.1655   394
15.1755   399
15.1855   397
15.1955   382
15.2055   394
15.2155   388
15.2255   364
15.2355   381
15.2455   389
15.2555   365
15.2655   380
15.2755   354
15.2855   351
15.2955   341
15.3055   317
15.3155   332
15.3255   319
15.3355   317
15.3455   327
15.3555   295
15.3655   277
15.3755   327
15.3855   322
15.3955   301
15.4055   295
15.4155   319
15.4255   306
15.4355   288
15.4455   304
15.4555   275
15.4655   275
15.4755   300
15.4855   290
15.4955   266
15.5056   270
15.5156   304
15.5256   281
15.5356   271
15.5456   282
15.5556   292
15.5656   265
15.5756   280
15.5856   291
15.5956   264
15.6056   250
15.6156   258
15.6256   279
15.6356   286
15.6456   296
15.6556   306
15.6656   295
15.6756   298
15.6856   312
15.6956   296
15.7056   315
15.7156   310
15.7256   294
15.7356   300
15.7456   301
15.7556   290
15.7656   292
15.7756   309
15.7856   298
15.7956   286
15.8056   299
15.8156   289
15.8256   290
15.8356   287
15.8456   294
15.8556   308
15.8656   298
15.8756   277
15.8856   276
15.8956   264
15.9056   291
15.9156   289
15.9256   297
15.9356   297
15.9456   290
15.9556   274
15.9656   261
15.9756   250
15.9856   265
15.9956   251
16.0056   261
16.0156   273
16.0256   254
16.0356   249
16.0456   245
16.0556   247
16.0656   247
16.0756   262
16.0856   234
16.0956   241
16.1056   250
16.1156   256
16.1256   254
16.1356   242
16.1456   251
16.1556   239
16.1656   246
16.1756   232
16.1856   222
16.1956   236
16.2056   244
16.2156   260
16.2256   258
16.2356   254
16.2456   280
16.2556   266
16.2656   245
16.2756   254
16.2856   234
16.2956   226
16.3056   225
16.3156   228
16.3256   265
16.3356   251
16.3456   239
16.3556   235
16.3656   244
16.3756   228
16.3856   221
16.3956   251
16.4056   253
16.4156   239
16.4256   254
16.4356   238
16.4456   235
16.4556   234
16.4656   229
16.4756   231
16.4856   243
16.4956   244
16.5057   224
16.5157   223
16.5257   215
16.5357   207
16.5457   219
16.5557   238
16.5657   230
16.5757   217
16.5857   220
16.5957   232
16.6057   239
16.6157   232
16.6257   236
16.6357   244
16.6457   226
16.6557   216
16.6657   216
16.6757   202
16.6857   204
16.6957   228
16.7057   246
16.7157   238
16.7257   241
16.7357   232
16.7457   216
16.7557   223
16.7657   203
16.7757   202
16.7857   227
16.7957   232
16.8057   230
16.8157   211
16.8257   208
16.8357   215
16.8457   213
16.8557   235
16.8657   212
16.8757   220
16.8857   228
16.8957   231
16.9057   222
16.9157   204
16.9257   215
16.9357   219
16.9457   211
16.9557   200
16.9657   199
16.9757   200
16.9857   216
16.9957   227
17.0057   209
17.0157   210
17.0257   223
17.0357   222
17.0457   223
17.0557   229
17.0657   219
17.0757   210
17.0857   210
17.0957   206
17.1057   206
17.1157   218
17.1257   237
17.1357   216
17.1457   203
17.1557   204
17.1657   221
17.1757   215
17.1857   208
17.1957   217
17.2057   202
17.2157   201
17.2257   217
17.2357   212
17.2457   210
17.2557   203
17.2657   203
17.2757   213
17.2857   222
17.2957   208
17.3057   212
17.3157   221
17.3257   228
17.3357   221
17.3457   216
17.3557   213
17.3657   217
17.3757   215
17.3857   207
17.3957   220
17.4057   226
17.4157   212
17.4257   211
17.4357   217
17.4457   215
17.4557   230
17.4657   228
17.4757   224
17.4857   206
17.4957   210
17.5058   202
17.5158   204
17.5258   205
17.5358   213
17.5458   216
17.5558   222
17.5658   217
17.5758   218
17.5858   221
17.5958   221
17.6058   219
17.6158   204
17.6258   203
17.6358   220
17.6458   218
17.6558   217
17.6658   224
17.6758   215
17.6858   210
17.6958   220
17.7058   231
17.7158   243
17.7258   235
17.7358   230
17.7458   229
17.7558   218
17.7658   224
17.7758   220
17.7858   205
17.7958   204
17.8058   212
17.8158   224
17.8258   216
17.8358   211
17.8458   225
17.8558   242
17.8658   245
17.8758   244
17.8858   227
17.8958   235
17.9058   263
17.9158   252
17.9258   244
17.9358   252
17.9458   256
17.9558   247
17.9658   237
17.9758   240
17.9858   253
17.9958   258
18.0058   245
18.0158   241
18.0258   285
18.0358   281
18.0458   266
18.0558   267
18.0658   243
18.0758   245
18.0858   255
18.0958   272
18.1058   280
18.1158   281
18.1258   308
18.1358   296
18.1458   278
18.1558   280
18.1658   285
18.1758   290
18.1858   287
18.1958   299
18.2058   303
18.2158   299
18.2258   317
18.2358   310
18.2458   313
18.2558   335
18.2658   339
18.2758   335
18.2858   338
18.2958   356
18.3058   384
18.3158   387
18.3258   376
18.3358   418
18.3458   436
18.3558   422
18.3658   444
18.3758   446
18.3858   488
18.3958   497
18.4058   473
18.4158   514
18.4258   545
18.4358   558
18.4458   547
18.4558   567
18.4658   612
18.4758   624
18.4858   655
18.4958   684
18.5059   696
18.5159   695
18.5259   712
18.5359   757
18.5459   794
18.5559   813
18.5659   847
18.5759   882
18.5859   877
18.5959   889
18.6059   912
18.6159   931
18.6259   939
18.6359   975
18.6459  1026
18.6559  1031
18.6659  1019
18.6759  1047
18.6859  1089
18.6959  1120
18.7059  1139
18.7159  1135
18.7259  1122
18.7359  1116
18.7459  1182
18.7559  1192
18.7659  1147
18.7759  1162
18.7859  1196
18.7959  1194
18.8059  1176
18.8159  1153
18.8259  1151
18.8359  1199
18.8459  1198
18.8559  1141
18.8659  1128
18.8759  1140
18.8859  1104
18.8959  1090
18.9059  1071
18.9159  1044
18.9259  1034
18.9359   993
18.9459   970
18.9559   944
18.9659   934
18.9759   931
18.9859   888
18.9959   858
19.0059   838
19.0159   794
19.0259   766
19.0359   746
19.0459   744
19.0559   713
19.0659   675
19.0759   652
19.0859   627
19.0959   633
19.1059   584
19.1159   547
19.1259   570
19.1359   539
19.1459   512
19.1559   493
19.1659   470
19.1759   471
19.1859   454
19.1959   420
19.2059   416
19.2159   403
19.2259   390
19.2359   380
19.2459   361
19.2559   354
19.2659   344
19.2759   343
19.2859   337
19.2959   313
19.3059   303
19.3159   294
19.3259   282
19.3359   291
19.3459   287
19.3559   272
19.3659   259
19.3759   259
19.3859   272
19.3959   266
19.4059   242
19.4159   228
19.4259   227
19.4359   238
19.4459   240
19.4559   224
19.4659   219
19.4759   224
19.4859   217
19.4959   221
 19.506   213
 19.516   197
 19.526   194
 19.536   202
 19.546   199
 19.556   189
 19.566   205
 19.576   204
 19.586   180
 19.596   181
 19.606   172
 19.616   180
 19.626   185
 19.636   165
 19.646   153
 19.656   160
 19.666   161
 19.676   169
 19.686   173
 19.696   162
 19.706   173
 19.716   167
 19.726   164
 19.736   163
 19.746   158
 19.756   147
 19.766   136
 19.776   139
 19.786   150
 19.796   139
 19.806   137
 19.816   154
 19.826   144
 19.836   131
 19.846   129
 19.856   124
 19.866   137
 19.876   142
 19.886   125
 19.896   121
 19.906   146
 19.916   160
 19.926   150
 19.936   159
 19.946   154
 19.956   158
 19.966   164
 19.976   169
 19.986   184
 19.996   193
 20.006   183
 20.016   181
 20.026   182
 20.036   198
 20.046   235
 20.056   229
 20.066   220
 20.076   240
 20.086   269
 20.096   291
 20.106   263
 20.116   263
 20.126   270
 20.136   297
 20.146   297
 20.156   291
 20.166   286
 20.176   286
 20.186   278
 20.196   295
 20.206   317
 20.216   299
 20.226   314
 20.236   311
 20.246   292
 20.256   279
 20.266   295
 20.276   269
 20.286   253
 20.296   255
 20.306   242
 20.316   227
 20.326   210
 20.336   205
 20.346   203
 20.356   191
 20.366   170
 20.376   170
 20.386   168
 20.396   172
 20.406   146
 20.416   120
 20.426   125
 20.436   125
 20.446   118
 20.456   123
 20.466   117
 20.476   127
 20.486   114
 20.496   120
20.5061   104
20.5161   104
20.5261    97
20.5361    97
20.5461   112
20.5561   115
20.5661   124
20.5761   131
20.5861   120
20.5961   123
20.6061   113
20.6161   130
20.6261   143
20.6361   135
20.6461   129
20.6561   134
20.6661   129
20.6761   118
20.6861   125
20.6961   134
20.7061   128
20.7161   128
20.7261   145
20.7361   154
20.7461   164
20.7561   148
20.7661   145
20.7761   159
20.7861   169
20.7961   172
20.8061   159
20.8161   170
20.8261   166
20.8361   162
20.8461   157
20.8561   158
20.8661   165
20.8761   178
20.8861   173
20.8961   178
20.9061   183
20.9161   178
20.9261   176
20.9361   161
20.9461   182
20.9561   187
20.9661   194
20.9761   199
20.9861   175
20.9961   176
21.0061   183
21.0161   173
21.0261   172
21.0361   170
21.0461   176
21.0561   173
21.0661   185
21.0761   173
21.0861   165
21.0961   176
21.1061   151
21.1161   167
21.1261   170
21.1361   160
21.1461   155
21.1561   141
21.1661   146
21.1761   150
21.1861   155
21.1961   150
21.2061   143
21.2161   123
21.2261   152
21.2361   146
21.2461   127
21.2561   127
21.2661   130
21.2761   135
21.2861   129
21.2961   116
21.3061   125
21.3161   133
21.3261   125
21.3361   111
21.3461   101
21.3561   107
21.3661   102
21.3761   102
21.3861   122
21.3961   107
21.4061   116
21.4161    95
21.4261   100
21.4361    87
21.4461    81
21.4561    80
21.4661    82
21.4761    90
21.4861    92
21.4961    87
21.5062    89
21.5162    90
21.5262    68
21.5362    72
21.5462    67
21.5562    75
21.5662    76
21.5762    73
21.5862    72
21.5962    71
21.6062    65
21.6162    80
21.6262    74
21.6362    49
21.6462    62
21.6562    59
21.6662    65
21.6762    64
21.6862    66
21.6962    54
21.7062    48
21.7162    60
21.7262    59
21.7362    52
21.7462    55
21.7562    59
21.7662    57
21.7762    47
21.7862    48
21.7962    55
21.8062    48
21.8162    54
21.8262    50
21.8362    56
21.8462    46
21.8562    46
21.8662    44
21.8762    44
21.8862    46
21.8962    52
21.9062    47
21.9162    35
21.9262    49
21.9362    49
21.9462    50
21.9562    40
21.9662    50
21.9762    38
21.9862    53
21.9962    51
22.0062    47
22.0162    50
22.0262    45
22.0362    44
22.0462    45
22.0562    55
22.0662    45
22.0762    34
22.0862    36
22.0962    45
22.1062    37
22.1162    39
22.1262    41
22.1362    40
22.1462    35
22.1562    50
22.1662    32
22.1762    40
22.1862    38
22.1962    38
22.2062    31
22.2162    31
22.2262    36
22.2362    28
22.2462    41
22.2562    29
22.2662    33
22.2762    37
22.2862    33
22.2962    37
22.3062    40
22.3162    35
22.3262    38
22.3362    35
22.3462    31
22.3562    23
22.3662    37
22.3762    35
22.3862    29
22.3962    42
22.4062    43
22.4162    31
22.4262    26
22.4362    29
22.4462    31
22.4562    39
22.4662    27
22.4762    25
22.4862    33
22.4962    35
22.5063    25
22.5163    33
22.5263    29
22.5363    26
22.5463    32
22.5563    37
22.5663    45
22.5763    39
22.5863    36
22.5963    34
22.6063    32
22.6163    46
22.6263    41
22.6363    45
22.6463    40
22.6563    46
22.6663    41
22.6763    44
22.6863    42
22.6963    40
22.7063    43
22.7163    42
22.7263    54
22.7363    47
22.7463    50
22.7563    43
22.7663    41
22.7763    44
22.7863    34
22.7963    42
22.8063    49
22.8163    48
22.8263    38
22.8363    38
22.8463    42
22.8563    44
22.8663    39
22.8763    28
22.8863    27
22.8963    24
22.9063    38
22.9163    34
22.9263    30
22.9363    21
22.9463    29
22.9563    34
22.9663    24
22.9763    22
22.9863    28
22.9963    28
23.0063    33
23.0163    29
23.0263    27
23.0363    33
23.0463    25
23.0563    32
23.0663    26
23.0763    22
23.0863    28
23.0963    29
23.1063    36
23.1163    27
23.1263    30
23.1363    31
23.1463    26
23.1563    28
23.1663    25
23.1763    26
23.1863    28
23.1963    31
23.2063    27
23.2163    26
23.2263    25
23.2363    31
23.2463    28
23.2563    22
23.2663    18
23.2763    27
23.2863    18
23.2963    28
23.3063    34
23.3163    23
23.3263    18
23.3363    25
23.3463    23
23.3563    15
23.3663    29
23.3763    20
23.3863    27
23.3963    19
23.4063    25
23.4163    21
23.4263    16
23.4363    27
23.4463    22
23.4563    31
23.4663    26
23.4763    21
23.4863    24
23.4963    16
23.5064    23
23.5164    21
23.5264    29
23.5364    17
23.5464    21
23.5564    25
23.5664    17
23.5764    26
23.5864    16
23.5964    14
23.6064    15
23.6164    22
23.6264    22
23.6364    23
23.6464    16
23.6564    17
23.6664    22
23.6764    16
23.6864    19
23.6964    22
23.7064    19
23.7164    18
23.7264    21
23.7364    16
23.7464    28
23.7564    14
23.7664    16
23.7764    28
23.7864    12
23.7964    17
23.8064    15
23.8164    19
23.8264    13
23.8364    26
23.8464    12
23.8564    11
23.8664    21
23.8764    21
23.8864    26
23.8964    18
23.9064    13
23.9164    14
23.9264    20
23.9364    15
23.9464    21
23.9564    17
23.9664    24
23.9764    30
23.9864    17
23.9964    13
24.0064    15
24.0164    12
24.0264    16
24.0364    14
24.0464    18
24.0564    15
24.0664    18
24.0764    18
24.0864    19
24.0964    13
24.1064    11
24.1164    18
24.1264    14
24.1364    20
24.1464    16
24.1564    21
24.1664     9
24.1764    24
24.1864    10
24.1964    22
24.2064    18
24.2164    14
24.2264    21
24.2364    20
24.2464    18
24.2564    13
24.2664    24
24.2764    15
24.2864    17
24.2964    20
24.3064    18
24.3164    20
24.3264    20
24.3364    20
24.3464    21
24.3564    11
24.3664    18
24.3764    16
24.3864    25
24.3964    14
24.4064    22
24.4164    17
24.4264    13
24.4364    22
24.4464    22
24.4564    23
24.4664    23
24.4764    16
24.4864    19
24.4964    11
24.5065    13
24.5165    23
24.5265     8
24.5365    13
24.5465    16
24.5565    21
24.5665    15
24.5765    10
24.5865    10
24.5965     6
24.6065    16
24.6165    15
24.6265    10
24.6365    16
24.6465    16
24.6565    15
24.6665    12
24.6765    15
24.6865    15
24.6965     7
24.7065    17
24.7165    14
24.7265    10
24.7365    12
24.7465    16
24.7565    16
24.7665    11
24.7765    14
24.7865    16
24.7965    14
24.8065    12
24.8165    15
24.8265    16
24.8365    13
24.8465    18
24.8565    12
24.8665    17
24.8765    12
24.8865    10
24.8965    11
24.9065    14
24.9165     7
24.9265    13
24.9365    16
24.9465    15
24.9565    16
24.9665    10
24.9765    12
24.9865    14
24.9965    10
25.0065     5
25.0165    15
25.0265    18
25.0365    23
25.0465    13
25.0565    12
25.0665    15
25.0765    15
25.0865    16
25.0965     9
25.1065     8
25.1165    12
25.1265    11
25.1365    11
25.1465    14
25.1565    14
25.1665    15
25.1765    17
25.1865    13
25.1965    14
25.2065    14
25.2165    10
25.2265    15
25.2365    16
25.2465     7
25.2565    14
25.2665    12
25.2765    18
25.2865    12
25.2965    12
25.3065    17
25.3165     7
25.3265    13
25.3365    13
25.3465    17
25.3565    18
25.3665    16
25.3765    15
25.3865    15
25.3965    11
25.4065    10
25.4165    22
25.4265    20
25.4365    12
25.4465    10
25.4565    16
25.4665    10
25.4765    11
25.4865    12
25.4965    16
25.5066    16
25.5166    10
25.5266    14
25.5366    11
25.5466    18
25.5566    14
25.5666    13
25.5766    16
25.5866    14
25.5966    19
25.6066    10
25.6166    10
25.6266     7
25.6366     7
25.6466    12
25.6566    10
25.6666    11
25.6766     9
25.6866    13
25.6966    13
25.7066    16
25.7166    16
25.7266    13
25.7366    12
25.7466    15
25.7566    17
25.7666    16
25.7766     8
25.7866    12
25.7966    16
25.8066     8
25.8166    12
25.8266    10
25.8366     9
25.8466    17
25.8566     9
25.8666    10
25.8766    12
25.8866     8
25.8966     9
25.9066    13
25.9166    11
25.9266    11
25.9366     5
25.9466    12
25.9566     9
25.9666    10
25.9766     7
25.9866     8
25.9966    12
26.0066    10
26.0166    11
26.0266    12
26.0366    13
26.0466    11
26.0566    10
26.0666     8
26.0766     8
26.0866     5
26.0966    11
26.1066    11
26.1166    13
26.1266    10
26.1366     9
26.1466    15
26.1566    10
26.1666    13
26.1766    12
26.1866    10
26.1966    15
26.2066    13
26.2166    14
26.2266     5
26.2366     5
26.2466     5
26.2566    11
26.2666     9
26.2766    10
26.2866    16
26.2966    14
26.3066     9
26.3166    10
26.3266    11
26.3366     7
26.3466     8
26.3566     7
26.3666     8
26.3766    10
26.3866    10
26.3966     5
26.4066     8
26.4166     7
26.4266    11
26.4366    11
26.4466    14
26.4566     6
26.4666     3
26.4766     5
26.4866    10
26.4966     9
26.5067    14
26.5167    10
26.5267     8
26.5367    10
26.5467     6
26.5567     8
26.5667     8
26.5767    10
26.5867     8
26.5967    10
26.6067     9
26.6167     9
26.6267     6
26.6367     9
26.6467     7
26.6567    12
26.6667     9
26.6767     7
26.6867     8
26.6967    11
26.7067     7
26.7167     7
26.7267     7
26.7367     5
26.7467     8
26.7567     7
26.7667    11
26.7767    11
26.7867    13
26.7967    14
26.8067    12
26.8167    10
26.8267    14
26.8367     7
26.8467     9
26.8567     9
26.8667     9
26.8767     8
26.8867     8
26.8967     6
26.9067     5
26.9167     7
26.9267     7
26.9367     5
26.9467     7
26.9567     6
26.9667     6
26.9767     8
26.9867     9
26.9967     7
27.0067     5
27.0167     5
27.0267     9
27.0367     9
27.0467     7
27.0567     5
27.0667     9
27.0767     8
27.0867     6
27.0967     9
27.1067     9
27.1167     6
27.1267     8
27.1367     8
27.1467     7
27.1567     6
27.1667     8
27.1767     6
27.1867     5
27.1967     6
27.2067    10
27.2167     9
27.2267     9
27.2367    10
27.2467     6
27.2567     5
27.2667     5
27.2767     9
27.2867     7
27.2967     5
27.3067     6
27.3167     7
27.3267     7
27.3367     6
27.3467     5
27.3567     6
27.3667     3
27.3767     4
27.3867     4
27.3967     5
27.4067     7
27.4167     6
27.4267     7
27.4367     5
27.4467     7
27.4567     8
27.4667     4
27.4767     6
27.4867     6
27.4967     9
27.5068     9
27.5168     6
27.5268     8
27.5368     8
27.5468     6
27.5568     7
27.5668     8
27.5768    11
27.5868    11
27.5968     8
27.6068     8
27.6168     5
27.6268     6
27.6368     7
27.6468     6
27.6568     5
27.6668     5
27.6768     4
27.6868     6
27.6968    10
27.7068    10
27.7168     9
27.7268     7
27.7368     6
27.7468     8
27.7568     6
27.7668     5
27.7768     6
27.7868     4
27.7968     5
27.8068     4
27.8168     6
27.8268     8
27.8368     9
27.8468     8
27.8568     7
27.8668     6
27.8768     7
27.8868     7
27.8968     6
27.9068     5
27.9168     5
27.9268     8
27.9368    10
27.9468     6
27.9568     4
27.9668     6
27.9768     4
27.9868     8
27.9968     7
28.0068     4
28.0168     7
28.0268     5
28.0368     4
28.0468     7
28.0568     7
28.0668     4
28.0768     2
28.0868     2
28.0968     6
28.1068     8
28.1168     6
28.1268     3
28.1368     5
28.1468     3
28.1568     4
28.1668     6
28.1768    10
28.1868     7
28.1968     8
28.2068     7
28.2168     4
28.2268     5
28.2368     7
28.2468     6
28.2568     4
28.2668     6
28.2768     6
28.2868     4
28.2968     5
28.3068     4
28.3168     4
28.3268     3
28.3368     3
28.3468     4
28.3568     8
28.3668     7
28.3768     7
28.3868     7
28.3968     4
28.4068     5
28.4168     6
28.4268     6
28.4368     5
28.4468     6
28.4568     6
28.4668     4
28.4768     8
28.4868     7
28.4968     6
28.5069     6
28.5169     5
28.5269     3
28.5369     3
28.5469     3
28.5569     5
28.5669     5
28.5769     6
28.5869     3
28.5969     2
28.6069     3
28.6169     5
28.6269     6
28.6369     5
28.6469     5
28.6569     6
28.6669     7
28.6769     6
28.6869     7
28.6969     4
28.7069     3
28.7169     4
28.7269     5
28.7369     4
28.7469     5
28.7569     3
28.7669     3
28.7769     6
28.7869     7
28.7969     4
28.8069     3
28.8169     1
28.8269     4
28.8369     4
28.8469     3
28.8569     5
28.8669     6
28.8769     6
28.8869     4
28.8969     4
28.9069     6
28.9169     4
28.9269     3
28.9369     4
28.9469     6
28.9569     6
28.9669     5
28.9769     6
28.9869     6
28.9969     6
29.0069     6
29.0169     4
29.0269     4
29.0369     3
29.0469     5
29.0569     5
29.0669     3
29.0769     2
29.0869     3
29.0969     3
29.1069     6
29.1169     7
29.1269     5
29.1369     4
29.1469     5
29.1569     6
29.1669     7
29.1769     7
29.1869     6
29.1969     4
29.2069     3
29.2169     6
29.2269     4
29.2369     6
29.2469     6
29.2569     5
29.2669     5
29.2769     3
29.2869     3
29.2969     4
29.3069     5
29.3169     5
29.3269     4
29.3369     5
29.3469     7
29.3569     5
29.3669     1
29.3769     3
29.3869     4
29.3969     2
29.4069     3
29.4169     4
29.4269     3
29.4369     4
29.4469     5
29.4569     3
29.4669     4
29.4769     7
29.4869     6
29.4969     8
 29.507     6
 29.517     3
 29.527     3
 29.537     4
 29.547     5
 29.557     6
 29.567     5
 29.577     5
 29.587     3
 29.597     3
 29.607     3
 29.617     4
 29.627     5
 29.637     4
 29.647     3
 29.657     2
 29.667     3
 29.677     4
 29.687     5
 29.697     2
 29.707     5
 29.717     7
 29.727     4
 29.737     3
 29.747     4
 29.757     4
 29.767     5
 29.777     6
 29.787     3
 29.797     1
 29.807     4
 29.817     6
 29.827     6
 29.837     5
 29.847     2
 29.857     2
 29.867     4
 29.877     4
 29.887     2
 29.897     3
 29.907     2
 29.917     2
 29.927     2
 29.937     2
 29.947     5
 29.957     4
 29.967     4
 29.977     3
 29.987     2
 29.997     3
 30.007     4
 30.017     2
 30.027     3
 30.037     4
 30.047     4
 30.057     3
 30.067     4
 30.077     6
 30.087     4
 30.097     3
 30.107     5
 30.117     5
 30.127     4
 30.137     4
 30.147     5
 30.157     6
 30.167     4
 30.177     4
 30.187     3
 30.197     3
 30.207     3
 30.217     3
 30.227     3
 30.237     3
 30.247     4
 30.257     6
 30.267     3
 30.277     3
 30.287     1
 30.297     2
 30.307     2
 30.317     4
 30.327     5
 30.337     5
 30.347     2
 30.357     4
 30.367     3
 30.377     2
 30.387     1
 30.397     3
 30.407     5
 30.417     4
 30.427     4
 30.437     5
 30.447     2
 30.457     1
 30.467     3
 30.477     4
 30.487     3
 30.497     3
30.5071     1
30.5171     0
30.5271     1
30.5371     2
30.5471     4
30.5571     4
30.5671     3
30.5771     3
30.5871     5
30.5971     4
30.6071     1
30.6171     2
30.6271     2
30.6371     2
30.6471     1
30.6571     0
30.6671     2
30.6771     4
30.6871     4
30.6971     2
30.7071     3
30.7171     2
30.7271     1
30.7371     2
30.7471     4
30.7571     4
30.7671     2
30.7771     2
30.7871     4
30.7971     4
30.8071     4
30.8171     3
30.8271     1
30.8371     2
30.8471     3
30.8571     3
30.8671     3
30.8771     1
30.8871     2
30.8971     4
30.9071     3
30.9171     1
30.9271     1
30.9371     3
30.9471     4
30.9571     3
30.9671     3
30.9771     4
30.9871     5
30.9971     5
31.0071     7
31.0171     3
31.0271     2
31.0371     4
31.0471     4
31.0571     2
31.0671     2
31.0771     2
31.0871     2
31.0971     3
31.1071     2
31.1171     3
31.1271     1
31.1371     3
31.1471     4
31.1571     4
31.1671     3
31.1771     3
31.1871     4
31.1971     3
31.2071     3
31.2171     4
31.2271     3
31.2371     1
31.2471     1
31.2571     3
31.2671     1
31.2771     3
31.2871     4
31.2971     3
31.3071     4
31.3171     2
31.3271     1
31.3371     2
31.3471     4
31.3571     4
31.3671     2
31.3771     2
31.3871     5
31.3971     3
31.4071     3
31.4171     3
31.4271     1
31.4371     1
31.4471     2
31.4571     3
31.4671     3
31.4771     3
31.4871     3
31.4971     1
31.5072     4
31.5172     4
31.5272     3
31.5372     3
31.5472     3
31.5572     2
31.5672     1
31.5772     2
31.5872     2
31.5972     1
31.6072     2
31.6172     3
31.6272     3
31.6372     3
31.6472     3
31.6572     1
31.6672     2
31.6772     3
31.6872     3
31.6972     4
31.7072     3
31.7172     2
31.7272     1
31.7372     2
31.7472     2
31.7572     3
31.7672     1
31.7772     1
31.7872     1
31.7972     2
31.8072     1
31.8172     2
31.8272     2
31.8372     3
31.8472     1
31.8572     1
31.8672     2
31.8772     2
31.8872     1
31.8972     2
31.9072     1
31.9172     0
31.9272     1
31.9372     2
31.9472     3
31.9572     4
31.9672     4
31.9772     3
31.9872     5
31.9972     0
32.0072     2
32.0172     4
32.0272     3
32.0372     2
32.0472     2
32.0572     2
32.0672     0
32.0772     2
32.0872     4
32.0972     2
32.1072     2
32.1172     1
32.1272     3
32.1372     2
32.1472     3
32.1572     4
32.1672     2
32.1772     5
32.1872     1
32.1972     2
32.2072     3
32.2172     4
32.2272     3
32.2372     1
32.2472     1
32.2572     1
32.2672     2
32.2772     4
32.2872     1
32.2972     3
32.3072     4
32.3172     4
32.3272     2
32.3372     2
32.3472     2
32.3572     2
32.3672     1
32.3772     1
32.3872     2
32.3972     3
32.4072     3
32.4172     2
32.4272     3
32.4372     3
32.4472     2
32.4572     2
32.4672     2
32.4772     0
32.4872     1
32.4972     1
32.5073     1
32.5173     0
32.5273     0
32.5373     0
32.5473     0
32.5573     1
32.5673     2
32.5773     3
32.5873     1
32.5973     0
32.6073     2
32.6173     3
32.6273     2
32.6373     1
32.6473     1
32.6573     0
32.6673     1
32.6773     2
32.6873     2
32.6973     1
32.7073     0
32.7173     1
32.7273     2
32.7373     1
32.7473     1
32.7573     2
32.7673     1
32.7773     1
32.7873     2
32.7973     3
32.8073     2
32.8173     1
32.8273     0
32.8373     1
32.8473     1
32.8573     0
32.8673     1
32.8773     1
32.8873     0
32.8973     0
32.9073     1
32.9173     1
32.9273     2
32.9373     3
32.9473     3
32.9573     3
32.9673     1
32.9773     2
32.9873     1
32.9973     0
33.0073     1
33.0173     1
33.0273     0
33.0373     1
33.0473     3
33.0573     2
33.0673     1
33.0773     2
33.0873     3
33.0973     1
33.1073     1
33.1173     2
33.1273     2
33.1373     1
33.1473     2
33.1573     2
33.1673     1
33.1773     2
33.1873     1
33.1973     1
33.2073     0
33.2173     1
33.2273     2
33.2373     3
33.2473     2
33.2573     2
33.2673     2
33.2773     2
33.2873     2
33.2973     2
33.3073     0
33.3173     1
33.3273     2
33.3373     2
33.3473     0
33.3573     1
33.3673     1
33.3773     1
33.3873     1
33.3973     3
33.4073     2
33.4173     2
33.4273     3
33.4373     1
33.4473     0
33.4573     1
33.4673     1
33.4773     2
33.4873     2
33.4973     1
33.5074     2
33.5174     1
33.5274     0
33.5374     2
33.5474     2
33.5574     0
33.5674     1
33.5774     1
33.5874     1
33.5974     0
33.6074     1
33.6174     0
33.6274     0
33.6374     1
33.6474     0
33.6574     1
33.6674     1
33.6774     1
33.6874     0
33.6974     0
33.7074     1
33.7174     2
33.7274     0
33.7374     2
33.7474     2
33.7574     1
33.7674     3
33.7774     0
33.7874     1
33.7974     0
33.8074     0
33.8174     0
33.8274     1
33.8374     1
33.8474     1
33.8574     1
33.8674     0
33.8774     0
33.8874     1
33.8974     1
33.9074     0
33.9174     2
33.9274     3
33.9374     2
33.9474     1
33.9574     0
33.9674     1
33.9774     0
33.9874     1
33.9974     0
34.0074     1
34.0174     2
34.0274     1
34.0374     2
34.0474     1
34.0574     0
34.0674     1
34.0774     2
34.0874     1
34.0974     2
34.1074     2
34.1174     2
34.1274     0
34.1374     1
34.1474     0
34.1574     0
34.1674     0
34.1774     0
34.1874     1
34.1974     1
34.2074     0
34.2174     0
34.2274     1
34.2374     1
34.2474     1
34.2574     1
34.2674     1
34.2774     0
34.2874     0
34.2974     1
34.3074     0
34.3174     1
34.3274     0
34.3374     0
34.3474     0
34.3574     0
34.3674     1
34.3774     2
34.3874     1
34.3974     0
34.4074     1
34.4174     1
34.4274     1
34.4374     0
34.4474     1
34.4574     0
34.4674     0
34.4774     1
34.4874     0
34.4974     1
34.5075     2
34.5175     1
34.5275     1
34.5375     1
34.5475     2
34.5575     0
34.5675     0
34.5775     1
34.5875     1
34.5975     2
34.6075     1
34.6175     0
34.6275     0
34.6375     0
34.6475     0
34.6575     1
34.6675     0
34.6775     1
34.6875     1
34.6975     4
34.7075     0
34.7175     1
34.7275     1
34.7375     1
34.7475     1
34.7575     1
34.7675     0
34.7775     1
34.7875     2
34.7975     1
34.8075     0
34.8175     0
34.8275     0
34.8375     1
34.8475     1
34.8575     1
34.8675     1
34.8775     0
34.8875     1
34.8975     0
34.9075     0
34.9175     0
34.9275     1
34.9375     1
34.9475     1
34.9575     3
34.9675     1
34.9775     2
34.9875     2
34.9975     0
35.0075     1
35.0175     1
35.0275     1
35.0375     0
35.0475     0
35.0575     0
35.0675     0
35.0775     1
35.0875     1
35.0975     2
35.1075     3
35.1175     2
35.1275     1
35.1375     0
35.1475     0
35.1575     1
35.1675     2
35.1775     1
35.1875     2
35.1975     1
35.2075     2
35.2175     1
35.2275     1
35.2375     1
35.2475     1
35.2575     0
35.2675     1
35.2775     0
35.2875     0
35.2975     0
35.3075     0
35.3175     1
35.3275     0
35.3375     1
35.3475     0
35.3575     1
35.3675     1
35.3775     1
35.3875     0
35.3975     1
35.4075     1
35.4175     1
35.4275     0
35.4375     1
35.4475     0
35.4575     1
35.4675     0
35.4775     0
35.4875     0
35.4975     1
35.5076     1
35.5176     1
35.5276     1
35.5376     0
35.5476     1
35.5576     1
35.5676     1
35.5776     0
35.5876     1
35.5976     0
35.6076     1
35.6176     2
35.6276     1
35.6376     1
35.6476     4
35.6576     4
35.6676     1
35.6776     1
35.6876     0
35.6976     1
35.7076     2
35.7176     1
35.7276     2
35.7376     2
35.7476     0
35.7576     1
35.7676     1
35.7776     1
35.7876     0
35.7976     1
35.8076     0
35.8176     0
35.8276     1
35.8376     2
35.8476     0
35.8576     0
35.8676     1
35.8776     1
35.8876     0
35.8976     0
35.9076     1
35.9176     1
35.9276     1
35.9376     1
35.9476     1
35.9576     1
35.9676     1
35.9776     0
35.9876     0
35.9976     1
36.0076     0
36.0176     0
36.0276     0
36.0376     2
36.0476     2
36.0576     0
36.0676     2
36.0776     2
36.0876     0
36.0976     0
36.1076     0
36.1176     0
36.1276     0
36.1376     0
36.1476     1
36.1576     0
36.1676     0
36.1776     0
36.1876     1
36.1976     0
36.2076     0
36.2176     0
36.2276     0
36.2376     1
36.2476     0
36.2576     1
36.2676     0
36.2776     0
36.2876     0
36.2976     0
36.3076     0
36.3176     0
36.3276     0
36.3376     1
36.3476     0
36.3576     1
36.3676     1
36.3776     0
36.3876     1
36.3976     1
36.4076     0
36.4176     1
36.4276     1
36.4376     1
36.4476     2
36.4576     1
36.4676     1
36.4776     0
36.4876     0
36.4976     1
36.5077     0
36.5177     1
36.5277     0
36.5377     0
36.5477     0
36.5577     1
36.5677     2
36.5777     1
36.5877     1
36.5977     0
36.6077     0
36.6177     1
36.6277     1
36.6377     0
36.6477     1
36.6577     1
36.6677     2
36.6777     2
36.6877     1
36.6977     1
36.7077     2
36.7177     1
36.7277     1
36.7377     0
36.7477     1
36.7577     0
36.7677     0
36.7777     0
36.7877     1
36.7977     0
36.8077     0
36.8177     0
36.8277     0
36.8377     0
36.8477     1
36.8577     1
36.8677     1
36.8777     0
36.8877     0
36.8977     0
36.9077     0
36.9177     0
36.9277     0
36.9377     1
36.9477     1
36.9577     2
36.9677     0
36.9777     0
36.9877     1
36.9977     1
37.0077     0
37.0177     1
37.0277     0
37.0377     0
37.0477     0
37.0577     0
37.0677     0
37.0777     0
37.0877     0
37.0977     1
37.1077     0
37.1177     0
37.1277     1
37.1377     2
37.1477     1
37.1577     0
37.1677     0
37.1777     0
37.1877     1
37.1977     0
37.2077     1
37.2177     0
37.2277     0
37.2377     0
37.2477     0
37.2577     0
37.2677     1
37.2777     1
37.2877     1
37.2977     0
37.3077     1
37.3177     1
37.3277     0
37.3377     0
37.3477     1
37.3577     0
37.3677     0
37.3777     0
37.3877     1
37.3977     0
37.4077     0
37.4177     0
37.4277     0
37.4377     0
37.4477     0
37.4577     1
37.4677     1
37.4777     0
37.4877     1
37.4977     0
37.5078     0
37.5178     0
37.5278     0
37.5378     1
37.5478     0
37.5578     0
37.5678     0
37.5778     1
37.5878     1
37.5978     0
37.6078     0
37.6178     0
37.6278     1
37.6378     0
37.6478     0
37.6578     0
37.6678     0
37.6778     0
37.6878     0
37.6978     0
37.7078     0
37.7178     1
37.7278     1
37.7378     0
37.7478     0
37.7578     0
37.7678     1
37.7778     0
37.7878     1
37.7978     0
37.8078     1
37.8178     0
37.8278     0
37.8378     1
37.8478     1
37.8578     0
37.8678     1
37.8778     0
37.8878     1
37.8978     0
37.9078     1
37.9178     1
37.9278     0
37.9378     1
37.9478     1
37.9578     0
37.9678     0
37.9778     1
37.9878     1
37.9978     2
38.0078     1
38.0178     0
38.0278     0
38.0378     1
38.0478     1
38.0578     1
38.0678     0
38.0778     0
38.0878     1
38.0978     0
38.1078     0
38.1178     0
38.1278     0
38.1378     0
38.1478     0
38.1578     0
38.1678     0
38.1778     0
38.1878     0
38.1978     1
38.2078     1
38.2178     0
38.2278     0
38.2378     1
38.2478     0
38.2578     1
38.2678     0
38.2778     0
38.2878     0
38.2978     0
38.3078     0
38.3178     0
38.3278     0
38.3378     1
38.3478     0
38.3578     0
38.3678     0
38.3778     0
38.3878     1
38.3978     0
38.4078     0
38.4178     0
38.4278     0
38.4378     0
38.4478     0
38.4578     1
38.4678     0
38.4778     0
38.4878     1
38.4978     1
38.5079     0
38.5179     1
38.5279     1
38.5379     1
38.5479     2
38.5579     1
38.5679     2
38.5779     1
38.5879     0
38.5979     0
38.6079     0
38.6179     0
38.6279     0
38.6379     1
38.6479     0
38.6579     0
38.6679     0
38.6779     0
38.6879     0
38.6979     0
38.7079     0
38.7179     0
38.7279     0
38.7379     0
38.7479     0
38.7579     0
38.7679     1
38.7779     0
38.7879     1
38.7979     0
38.8079     0
38.8179     0
38.8279     0
38.8379     0
38.8479     0
38.8579     0
38.8679     0
38.8779     1
38.8879     0
38.8979     0
38.9079     0
38.9179     1
38.9279     0
38.9379     1
38.9479     0
38.9579     0
38.9679     1
38.9779     0
38.9879     0
38.9979     0
39.0079     0
39.0179     0
39.0279     0
39.0379     1
39.0479     0
39.0579     0
39.0679     0
39.0779     0
39.0879     0
39.0979     0
39.1079     0
39.1179     0
39.1279     0
39.1379     0
39.1479     0
39.1579     0
39.1679     0
39.1779     0
39.1879     0
39.1979     0
39.2079     0
39.2179     0
39.2279     1
39.2379     0
39.2479     0
39.2579     0
39.2679     0
39.2779     0
39.2879     0
39.2979     0
39.3079     1
39.3179     2
39.3279     1
39.3379     0
39.3479     0
39.3579     0
39.3679     1
39.3779     0
39.3879     0
39.3979     0
39.4079     1
39.4179     0
39.4279     0
39.4379     0
39.4479     0
39.4579     0
39.4679     1
39.4779     0
39.4879     0
39.4979     0
 39.508     0
 39.518     1
 39.528     0
 39.538     1
 39.548     0
 39.558     0
 39.568     0
 39.578     0
 39.588     0
 39.598     0
 39.608     0
 39.618     1
 39.628     0
 39.638     0
 39.648     1
 39.658     0
 39.668     0
 39.678     0
 39.688     1
 39.698     0
 39.708     0
 39.718     0
 39.728     0
 39.738     1
 39.748     0
 39.758     0
 39.768     0
 39.778     0
 39.788     1
 39.798     0
 39.808     0
 39.818     1
 39.828     0
 39.838     1
 39.848     2
 39.858     1
 39.868     0
 39.878     0
 39.888     0
 39.898     0
 39.908     0
 39.918     0
 39.928     1
 39.938     0
 39.948     0
 39.958     0
 39.968     0
 39.978     0
 39.988     0
 39.998     1
