Bruker Nano GmbH Berlin, Germany
Esprit 1.9

Date: 4/5/2021 6:23:16 PM
Real time: 31412
Life time: 29997
Pulse density: 23110


Detector type: XFlash 430
Window type: Custom type
Detector thickness: 0.45
Si dead layer:0.029

Calibration, lin.: 10.001
Calibration, abs.: -956.096
Mn FWHM: 143.646
Fano factor: 0.114
Channels: 4096

Energy Counts
-0.9561     0
-0.9461     0
-0.9361     0
-0.9261     0
-0.9161     0
-0.9061     0
-0.8961     0
-0.8861     0
-0.8761     0
-0.8661     0
-0.8561     0
-0.8461     0
-0.8361     0
-0.8261     0
-0.8161     0
-0.8061     0
-0.7961     0
-0.7861     0
-0.7761     0
-0.7661     0
-0.7561     0
-0.7461     0
-0.7361     0
-0.7261     0
-0.7161     0
-0.7061     0
-0.6961     0
-0.6861     0
-0.6761     0
-0.6661     0
-0.6561     0
-0.6461     0
-0.6361     0
-0.6261     0
-0.6161     0
-0.6061     0
-0.5961     0
-0.5861     0
-0.5761     0
-0.5661     0
-0.5561     0
-0.5461     0
-0.5361     0
-0.5261     0
-0.5161     0
-0.5061     0
 -0.496     0
 -0.486     0
 -0.476     0
 -0.466     0
 -0.456     0
 -0.446     0
 -0.436     0
 -0.426     0
 -0.416     0
 -0.406     0
 -0.396     0
 -0.386     0
 -0.376     0
 -0.366     0
 -0.356     0
 -0.346     0
 -0.336     0
 -0.326     0
 -0.316     0
 -0.306     0
 -0.296     0
 -0.286     0
 -0.276     0
 -0.266     0
 -0.256     1
 -0.246     0
 -0.236     2
 -0.226     2
 -0.216     3
 -0.206     2
 -0.196     2
 -0.186     5
 -0.176     3
 -0.166     2
 -0.156     4
 -0.146     4
 -0.136     7
 -0.126    45
 -0.116    61
 -0.106   224
 -0.096   582
 -0.086  1293
 -0.076  2742
 -0.066  4961
 -0.056  9012
 -0.046 14091
 -0.036 20510
 -0.026 27173
 -0.016 32480
 -0.006 35557
  0.004 35201
  0.014 32344
  0.024 27415
  0.034 20922
  0.044 14421
  0.054  9109
  0.064  5380
  0.074  2827
  0.084  1329
  0.094   585
  0.104   240
  0.114    86
  0.124    29
  0.134     7
  0.144     5
  0.154     3
  0.164     2
  0.174    -1
  0.184     1
  0.194     0
  0.204     0
  0.214     0
  0.224     0
  0.234     0
  0.244     1
  0.254     0
  0.264     0
  0.274     0
  0.284     0
  0.294    -1
  0.304    12
  0.314    35
  0.324    34
  0.334    29
  0.344    40
  0.354    37
  0.364    25
  0.374    28
  0.384    37
  0.394    34
  0.404    27
  0.414    30
  0.424    31
  0.434    30
  0.444    29
  0.454    34
  0.464    33
  0.474    28
  0.484    31
  0.494    34
 0.5041    28
 0.5141    26
 0.5241    24
 0.5341    21
 0.5441    32
 0.5541    19
 0.5641    25
 0.5741    30
 0.5841    26
 0.5941    27
 0.6041    22
 0.6141    28
 0.6241    24
 0.6341    25
 0.6441    23
 0.6541    23
 0.6641    18
 0.6741    25
 0.6841    32
 0.6941    26
 0.7041    18
 0.7141    24
 0.7241    25
 0.7341    25
 0.7441    32
 0.7541    27
 0.7641    24
 0.7741    27
 0.7841    25
 0.7941    27
 0.8041    20
 0.8141    25
 0.8241    31
 0.8341    25
 0.8441    17
 0.8541    33
 0.8641    16
 0.8741    18
 0.8841    18
 0.8941    19
 0.9041    23
 0.9141    18
 0.9241    11
 0.9341    19
 0.9441    23
 0.9541    22
 0.9641    16
 0.9741    21
 0.9841    15
 0.9941    25
 1.0041    32
 1.0141    19
 1.0241    23
 1.0341    17
 1.0441    28
 1.0541    21
 1.0641    21
 1.0741    24
 1.0841    29
 1.0941    31
 1.1041    20
 1.1141    22
 1.1241    22
 1.1341    22
 1.1441    25
 1.1541    27
 1.1641    20
 1.1741    20
 1.1841    14
 1.1941    24
 1.2041    20
 1.2141    17
 1.2241    17
 1.2341    16
 1.2441    14
 1.2541    20
 1.2641    28
 1.2741    25
 1.2841    14
 1.2941    14
 1.3041    22
 1.3141    21
 1.3241    21
 1.3341    22
 1.3441    19
 1.3541    21
 1.3641    23
 1.3741    23
 1.3841    22
 1.3941    17
 1.4041    13
 1.4141    11
 1.4241    17
 1.4341    15
 1.4441    14
 1.4541    17
 1.4641    10
 1.4741    16
 1.4841    18
 1.4941    13
 1.5042    19
 1.5142    12
 1.5242    18
 1.5342    13
 1.5442    18
 1.5542    17
 1.5642    14
 1.5742     7
 1.5842     9
 1.5942     8
 1.6042    12
 1.6142    12
 1.6242    12
 1.6342    10
 1.6442     8
 1.6542    14
 1.6642    10
 1.6742    12
 1.6842    19
 1.6942    11
 1.7042    12
 1.7142    11
 1.7242    14
 1.7342    15
 1.7442    12
 1.7542    10
 1.7642    10
 1.7742    13
 1.7842     9
 1.7942    11
 1.8042    10
 1.8142    10
 1.8242     8
 1.8342     9
 1.8442     6
 1.8542    14
 1.8642    15
 1.8742    10
 1.8842     4
 1.8942    10
 1.9042    11
 1.9142    15
 1.9242    10
 1.9342    13
 1.9442     9
 1.9542     9
 1.9642     9
 1.9742    11
 1.9842    10
 1.9942     9
 2.0042    11
 2.0142    11
 2.0242    15
 2.0342     7
 2.0442     4
 2.0542     7
 2.0642     9
 2.0742     7
 2.0842     8
 2.0942    14
 2.1042     7
 2.1142    13
 2.1242    13
 2.1342    13
 2.1442    10
 2.1542     7
 2.1642     6
 2.1742     9
 2.1842    14
 2.1942     8
 2.2042     9
 2.2142    16
 2.2242     7
 2.2342     8
 2.2442    13
 2.2542    12
 2.2642    10
 2.2742    10
 2.2842     9
 2.2942     9
 2.3042    11
 2.3142    11
 2.3242    13
 2.3342     8
 2.3442    12
 2.3542    13
 2.3642    10
 2.3742     8
 2.3842     8
 2.3942    13
 2.4042     8
 2.4142     4
 2.4242    11
 2.4342    11
 2.4442    13
 2.4542    10
 2.4642    11
 2.4742     8
 2.4842     7
 2.4942    10
 2.5043     9
 2.5143     8
 2.5243    11
 2.5343     8
 2.5443     4
 2.5543    10
 2.5643    13
 2.5743    17
 2.5843    17
 2.5943    18
 2.6043    15
 2.6143    14
 2.6243    17
 2.6343    13
 2.6443    18
 2.6543    28
 2.6643    27
 2.6743    27
 2.6843    26
 2.6943    30
 2.7043    36
 2.7143    41
 2.7243    40
 2.7343    36
 2.7443    35
 2.7543    33
 2.7643    34
 2.7743    37
 2.7843    38
 2.7943    34
 2.8043    25
 2.8143    38
 2.8243    42
 2.8343    51
 2.8443    62
 2.8543    61
 2.8643    96
 2.8743   135
 2.8843   147
 2.8943   201
 2.9043   262
 2.9143   311
 2.9243   338
 2.9343   388
 2.9443   419
 2.9543   439
 2.9643   447
 2.9743   459
 2.9843   385
 2.9943   342
 3.0043   298
 3.0143   270
 3.0243   198
 3.0343   169
 3.0443   114
 3.0543    77
 3.0643    63
 3.0743    35
 3.0843    38
 3.0943    33
 3.1043    16
 3.1143    30
 3.1243    29
 3.1343    35
 3.1443    34
 3.1543    47
 3.1643    61
 3.1743    65
 3.1843    56
 3.1943    62
 3.2043    66
 3.2143    64
 3.2243    69
 3.2343    66
 3.2443    68
 3.2543    77
 3.2643    78
 3.2743    77
 3.2843    76
 3.2943    79
 3.3043    91
 3.3143    99
 3.3243   104
 3.3343    95
 3.3443    81
 3.3543    75
 3.3643    70
 3.3743    60
 3.3843    55
 3.3943    43
 3.4043    39
 3.4143    39
 3.4243    29
 3.4343    20
 3.4443    21
 3.4543    16
 3.4643    19
 3.4743    17
 3.4843    15
 3.4943    17
 3.5044    17
 3.5144    16
 3.5244    28
 3.5344    30
 3.5444    31
 3.5544    34
 3.5644    47
 3.5744    75
 3.5844   100
 3.5944   122
 3.6044   165
 3.6144   235
 3.6244   310
 3.6344   354
 3.6444   415
 3.6544   516
 3.6644   586
 3.6744   666
 3.6844   697
 3.6944   696
 3.7044   705
 3.7144   635
 3.7244   622
 3.7344   526
 3.7444   486
 3.7544   386
 3.7644   303
 3.7744   258
 3.7844   187
 3.7944   148
 3.8044    97
 3.8144    59
 3.8244    54
 3.8344    50
 3.8444    41
 3.8544    53
 3.8644    54
 3.8744    64
 3.8844    67
 3.8944    81
 3.9044   106
 3.9144   119
 3.9244   160
 3.9344   209
 3.9444   224
 3.9544   238
 3.9644   213
 3.9744   248
 3.9844   252
 3.9944   247
 4.0044   224
 4.0144   222
 4.0244   200
 4.0344   192
 4.0444   165
 4.0544   162
 4.0644   118
 4.0744   101
 4.0844    90
 4.0944    77
 4.1044    75
 4.1144    50
 4.1244    49
 4.1344    32
 4.1444    37
 4.1544    39
 4.1644    27
 4.1744    29
 4.1844    28
 4.1944    28
 4.2044    24
 4.2144    33
 4.2244    43
 4.2344    44
 4.2444    32
 4.2544    52
 4.2644    63
 4.2744    65
 4.2844    94
 4.2944   107
 4.3044   128
 4.3144   169
 4.3244   229
 4.3344   325
 4.3444   423
 4.3544   562
 4.3644   789
 4.3744  1064
 4.3844  1368
 4.3944  1741
 4.4044  2225
 4.4144  2688
 4.4244  3208
 4.4344  3650
 4.4444  4145
 4.4544  4382
 4.4644  4516
 4.4744  4706
 4.4844  4647
 4.4944  4407
 4.5045  4048
 4.5145  3675
 4.5245  3185
 4.5345  2658
 4.5445  2250
 4.5545  1839
 4.5645  1406
 4.5745  1024
 4.5845   781
 4.5945   576
 4.6045   400
 4.6145   303
 4.6245   218
 4.6345   162
 4.6445   126
 4.6545   109
 4.6645   121
 4.6745   138
 4.6845   157
 4.6945   173
 4.7045   230
 4.7145   326
 4.7245   461
 4.7345   615
 4.7445   876
 4.7545  1035
 4.7645  1249
 4.7745  1573
 4.7845  1828
 4.7945  2120
 4.8045  2428
 4.8145  2715
 4.8245  2892
 4.8345  2992
 4.8445  3042
 4.8545  3013
 4.8645  2840
 4.8745  2709
 4.8845  2479
 4.8945  2277
 4.9045  2069
 4.9145  1878
 4.9245  1665
 4.9345  1452
 4.9445  1272
 4.9545  1077
 4.9645   925
 4.9745   832
 4.9845   744
 4.9945   618
 5.0045   506
 5.0145   426
 5.0245   361
 5.0345   316
 5.0445   305
 5.0545   331
 5.0645   322
 5.0745   334
 5.0845   411
 5.0945   471
 5.1045   584
 5.1145   655
 5.1245   711
 5.1345   835
 5.1445   897
 5.1545   933
 5.1645   959
 5.1745   950
 5.1845   869
 5.1945   832
 5.2045   741
 5.2145   684
 5.2245   623
 5.2345   543
 5.2445   472
 5.2545   474
 5.2645   456
 5.2745   508
 5.2845   576
 5.2945   727
 5.3045   922
 5.3145  1132
 5.3245  1508
 5.3345  1986
 5.3445  2424
 5.3545  2874
 5.3645  3467
 5.3745  3930
 5.3845  4505
 5.3945  4884
 5.4045  5126
 5.4145  5194
 5.4245  5167
 5.4345  5010
 5.4445  4782
 5.4545  4409
 5.4645  3871
 5.4745  3431
 5.4845  2998
 5.4945  2529
 5.5046  2021
 5.5146  1708
 5.5246  1403
 5.5346  1134
 5.5446   909
 5.5546   735
 5.5646   597
 5.5746   530
 5.5846   420
 5.5946   340
 5.6046   287
 5.6146   231
 5.6246   194
 5.6346   158
 5.6446   130
 5.6546   109
 5.6646   110
 5.6746   114
 5.6846   103
 5.6946   106
 5.7046   115
 5.7146   138
 5.7246   139
 5.7346   157
 5.7446   166
 5.7546   188
 5.7646   192
 5.7746   211
 5.7846   221
 5.7946   264
 5.8046   290
 5.8146   320
 5.8246   314
 5.8346   331
 5.8446   369
 5.8546   420
 5.8646   423
 5.8746   511
 5.8846   589
 5.8946   614
 5.9046   698
 5.9146   752
 5.9246   775
 5.9346   783
 5.9446   808
 5.9546   772
 5.9646   760
 5.9746   716
 5.9846   650
 5.9946   617
 6.0046   544
 6.0146   482
 6.0246   420
 6.0346   347
 6.0446   294
 6.0546   240
 6.0646   185
 6.0746   145
 6.0846   117
 6.0946    93
 6.1046    77
 6.1146    68
 6.1246    72
 6.1346    51
 6.1446    47
 6.1546    53
 6.1646    48
 6.1746    52
 6.1846    58
 6.1946    62
 6.2046    68
 6.2146    73
 6.2246    88
 6.2346   105
 6.2446   113
 6.2546   153
 6.2646   224
 6.2746   294
 6.2846   394
 6.2946   546
 6.3046   655
 6.3146   834
 6.3246  1065
 6.3346  1230
 6.3446  1442
 6.3546  1700
 6.3646  1854
 6.3746  2071
 6.3846  2222
 6.3946  2312
 6.4046  2315
 6.4146  2420
 6.4246  2275
 6.4346  2132
 6.4446  1921
 6.4546  1706
 6.4646  1520
 6.4746  1300
 6.4846  1098
 6.4946   886
 6.5047   708
 6.5147   597
 6.5247   475
 6.5347   348
 6.5447   292
 6.5547   200
 6.5647   151
 6.5747   122
 6.5847   101
 6.5947    92
 6.6047    78
 6.6147    61
 6.6247    57
 6.6347    59
 6.6447    52
 6.6547    64
 6.6647    58
 6.6747    54
 6.6847    53
 6.6947    61
 6.7047    59
 6.7147    57
 6.7247    65
 6.7347    56
 6.7447    65
 6.7547    57
 6.7647    65
 6.7747    67
 6.7847    70
 6.7947    70
 6.8047    63
 6.8147    59
 6.8247    74
 6.8347    67
 6.8447    68
 6.8547    75
 6.8647    75
 6.8747    70
 6.8847    91
 6.8947    98
 6.9047   102
 6.9147   118
 6.9247   130
 6.9347   163
 6.9447   174
 6.9547   187
 6.9647   198
 6.9747   220
 6.9847   260
 6.9947   286
 7.0047   324
 7.0147   327
 7.0247   353
 7.0347   390
 7.0447   394
 7.0547   418
 7.0647   427
 7.0747   428
 7.0847   401
 7.0947   387
 7.1047   386
 7.1147   351
 7.1247   282
 7.1347   236
 7.1447   213
 7.1547   213
 7.1647   195
 7.1747   163
 7.1847   140
 7.1947   112
 7.2047   100
 7.2147    93
 7.2247    88
 7.2347    80
 7.2447    78
 7.2547    71
 7.2647    79
 7.2747    64
 7.2847    62
 7.2947    74
 7.3047    80
 7.3147    66
 7.3247    63
 7.3347    82
 7.3447    81
 7.3547    84
 7.3647    83
 7.3747    88
 7.3847    95
 7.3947    94
 7.4047   105
 7.4147    95
 7.4247    86
 7.4347    89
 7.4447   104
 7.4547   106
 7.4647    96
 7.4747   107
 7.4847   105
 7.4947   114
 7.5048   111
 7.5148   101
 7.5248    90
 7.5348    95
 7.5448   103
 7.5548   100
 7.5648   100
 7.5748    88
 7.5848    82
 7.5948    88
 7.6048    81
 7.6148    76
 7.6248    88
 7.6348    83
 7.6448    78
 7.6548    78
 7.6648    94
 7.6748    92
 7.6848   101
 7.6948    92
 7.7048    85
 7.7148    83
 7.7248    86
 7.7348   101
 7.7448    96
 7.7548    93
 7.7648    99
 7.7748    87
 7.7848    84
 7.7948    82
 7.8048    89
 7.8148   104
 7.8248   105
 7.8348    95
 7.8448    97
 7.8548    99
 7.8648    94
 7.8748    96
 7.8848    95
 7.8948    94
 7.9048   113
 7.9148   109
 7.9248    96
 7.9348    95
 7.9448    96
 7.9548   102
 7.9648   104
 7.9748   109
 7.9848   106
 7.9948   113
 8.0048   116
 8.0148   114
 8.0248   123
 8.0348   134
 8.0448   135
 8.0548   124
 8.0648   125
 8.0748   138
 8.0848   139
 8.0948   122
 8.1048   125
 8.1148   128
 8.1248   124
 8.1348   102
 8.1448   103
 8.1548   115
 8.1648   123
 8.1748   124
 8.1848   119
 8.1948   114
 8.2048   109
 8.2148   100
 8.2248   113
 8.2348   115
 8.2448    99
 8.2548   104
 8.2648   115
 8.2748   123
 8.2848   118
 8.2948   115
 8.3048   118
 8.3148   119
 8.3248   117
 8.3348   121
 8.3448   120
 8.3548   112
 8.3648   122
 8.3748   134
 8.3848   122
 8.3948   123
 8.4048   130
 8.4148   116
 8.4248   102
 8.4348   110
 8.4448   123
 8.4548   121
 8.4648   125
 8.4748   130
 8.4848   128
 8.4948   127
 8.5049   138
 8.5149   138
 8.5249   131
 8.5349   130
 8.5449   129
 8.5549   153
 8.5649   156
 8.5749   147
 8.5849   148
 8.5949   135
 8.6049   139
 8.6149   164
 8.6249   155
 8.6349   146
 8.6449   162
 8.6549   160
 8.6649   153
 8.6749   142
 8.6849   139
 8.6949   146
 8.7049   147
 8.7149   138
 8.7249   136
 8.7349   147
 8.7449   138
 8.7549   141
 8.7649   148
 8.7749   139
 8.7849   148
 8.7949   155
 8.8049   149
 8.8149   147
 8.8249   141
 8.8349   144
 8.8449   149
 8.8549   134
 8.8649   130
 8.8749   142
 8.8849   151
 8.8949   148
 8.9049   147
 8.9149   160
 8.9249   154
 8.9349   142
 8.9449   148
 8.9549   142
 8.9649   138
 8.9749   155
 8.9849   158
 8.9949   153
 9.0049   141
 9.0149   142
 9.0249   147
 9.0349   152
 9.0449   160
 9.0549   169
 9.0649   171
 9.0749   155
 9.0849   154
 9.0949   156
 9.1049   161
 9.1149   167
 9.1249   151
 9.1349   155
 9.1449   175
 9.1549   176
 9.1649   177
 9.1749   163
 9.1849   152
 9.1949   155
 9.2049   166
 9.2149   179
 9.2249   182
 9.2349   170
 9.2449   179
 9.2549   188
 9.2649   169
 9.2749   158
 9.2849   156
 9.2949   165
 9.3049   168
 9.3149   178
 9.3249   177
 9.3349   167
 9.3449   169
 9.3549   175
 9.3649   178
 9.3749   165
 9.3849   164
 9.3949   186
 9.4049   179
 9.4149   172
 9.4249   180
 9.4349   188
 9.4449   176
 9.4549   166
 9.4649   167
 9.4749   159
 9.4849   157
 9.4949   165
  9.505   185
  9.515   194
  9.525   187
  9.535   183
  9.545   183
  9.555   175
  9.565   185
  9.575   180
  9.585   183
  9.595   183
  9.605   198
  9.615   208
  9.625   190
  9.635   192
  9.645   199
  9.655   200
  9.665   187
  9.675   199
  9.685   209
  9.695   187
  9.705   200
  9.715   210
  9.725   191
  9.735   199
  9.745   197
  9.755   190
  9.765   186
  9.775   205
  9.785   215
  9.795   196
  9.805   203
  9.815   198
  9.825   204
  9.835   213
  9.845   188
  9.855   195
  9.865   203
  9.875   206
  9.885   213
  9.895   211
  9.905   237
  9.915   210
  9.925   204
  9.935   219
  9.945   215
  9.955   211
  9.965   191
  9.975   209
  9.985   215
  9.995   214
 10.005   212
 10.015   199
 10.025   205
 10.035   209
 10.045   202
 10.055   205
 10.065   205
 10.075   202
 10.085   199
 10.095   219
 10.105   216
 10.115   215
 10.125   198
 10.135   211
 10.145   217
 10.155   205
 10.165   222
 10.175   211
 10.185   195
 10.195   223
 10.205   229
 10.215   204
 10.225   207
 10.235   234
 10.245   223
 10.255   206
 10.265   210
 10.275   221
 10.285   225
 10.295   222
 10.305   229
 10.315   235
 10.325   228
 10.335   226
 10.345   235
 10.355   238
 10.365   234
 10.375   219
 10.385   242
 10.395   235
 10.405   219
 10.415   237
 10.425   234
 10.435   222
 10.445   233
 10.455   246
 10.465   259
 10.475   257
 10.485   258
 10.495   267
10.5051   267
10.5151   270
10.5251   269
10.5351   249
10.5451   236
10.5551   232
10.5651   246
10.5751   253
10.5851   260
10.5951   265
10.6051   276
10.6151   268
10.6251   255
10.6351   249
10.6451   237
10.6551   233
10.6651   257
10.6751   243
10.6851   253
10.6951   266
10.7051   250
10.7151   259
10.7251   240
10.7351   247
10.7451   261
10.7551   250
10.7651   273
10.7751   290
10.7851   274
10.7951   272
10.8051   262
10.8151   250
10.8251   265
10.8351   281
10.8451   268
10.8551   266
10.8651   256
10.8751   258
10.8851   292
10.8951   279
10.9051   278
10.9151   270
10.9251   266
10.9351   304
10.9451   287
10.9551   289
10.9651   255
10.9751   294
10.9851   306
10.9951   256
11.0051   265
11.0151   273
11.0251   263
11.0351   267
11.0451   279
11.0551   272
11.0651   286
11.0751   306
11.0851   291
11.0951   276
11.1051   275
11.1151   257
11.1251   267
11.1351   258
11.1451   253
11.1551   301
11.1651   270
11.1751   280
11.1851   292
11.1951   286
11.2051   288
11.2151   274
11.2251   286
11.2351   291
11.2451   283
11.2551   265
11.2651   283
11.2751   296
11.2851   286
11.2951   294
11.3051   287
11.3151   282
11.3251   300
11.3351   328
11.3451   311
11.3551   293
11.3651   300
11.3751   302
11.3851   275
11.3951   299
11.4051   286
11.4151   304
11.4251   284
11.4351   288
11.4451   285
11.4551   284
11.4651   310
11.4751   301
11.4851   302
11.4951   310
11.5052   315
11.5152   295
11.5252   296
11.5352   307
11.5452   324
11.5552   320
11.5652   304
11.5752   310
11.5852   299
11.5952   309
11.6052   292
11.6152   279
11.6252   296
11.6352   287
11.6452   308
11.6552   329
11.6652   296
11.6752   299
11.6852   305
11.6952   283
11.7052   302
11.7152   278
11.7252   299
11.7352   312
11.7452   317
11.7552   318
11.7652   295
11.7752   293
11.7852   290
11.7952   285
11.8052   321
11.8152   336
11.8252   314
11.8352   302
11.8452   307
11.8552   309
11.8652   284
11.8752   301
11.8852   300
11.8952   315
11.9052   310
11.9152   284
11.9252   315
11.9352   340
11.9452   318
11.9552   332
11.9652   317
11.9752   325
11.9852   306
11.9952   281
12.0052   327
12.0152   314
12.0252   342
12.0352   308
12.0452   286
12.0552   304
12.0652   313
12.0752   295
12.0852   303
12.0952   314
12.1052   313
12.1152   359
12.1252   357
12.1352   290
12.1452   299
12.1552   328
12.1652   339
12.1752   324
12.1852   349
12.1952   338
12.2052   318
12.2152   338
12.2252   345
12.2352   323
12.2452   295
12.2552   305
12.2652   307
12.2752   324
12.2852   331
12.2952   337
12.3052   323
12.3152   325
12.3252   326
12.3352   336
12.3452   303
12.3552   293
12.3652   331
12.3752   311
12.3852   301
12.3952   312
12.4052   341
12.4152   321
12.4252   310
12.4352   342
12.4452   357
12.4552   312
12.4652   312
12.4752   326
12.4852   289
12.4952   308
12.5053   335
12.5153   317
12.5253   302
12.5353   310
12.5453   330
12.5553   324
12.5653   304
12.5753   320
12.5853   329
12.5953   310
12.6053   324
12.6153   349
12.6253   314
12.6353   328
12.6453   335
12.6553   298
12.6653   314
12.6753   328
12.6853   359
12.6953   299
12.7053   307
12.7153   313
12.7253   342
12.7353   297
12.7453   332
12.7553   307
12.7653   340
12.7753   315
12.7853   357
12.7953   329
12.8053   323
12.8153   320
12.8253   344
12.8353   335
12.8453   351
12.8553   344
12.8653   301
12.8753   319
12.8853   333
12.8953   324
12.9053   317
12.9153   327
12.9253   332
12.9353   339
12.9453   320
12.9553   313
12.9653   321
12.9753   305
12.9853   317
12.9953   348
13.0053   332
13.0153   317
13.0253   354
13.0353   298
13.0453   312
13.0553   320
13.0653   313
13.0753   324
13.0853   318
13.0953   314
13.1053   330
13.1153   356
13.1253   306
13.1353   353
13.1453   306
13.1553   333
13.1653   328
13.1753   331
13.1853   308
13.1953   338
13.2053   355
13.2153   325
13.2253   318
13.2353   333
13.2453   313
13.2553   314
13.2653   308
13.2753   325
13.2853   330
13.2953   345
13.3053   292
13.3153   363
13.3253   302
13.3353   341
13.3453   329
13.3553   349
13.3653   303
13.3753   329
13.3853   328
13.3953   322
13.4053   329
13.4153   315
13.4253   326
13.4353   316
13.4453   336
13.4553   331
13.4653   328
13.4753   311
13.4853   322
13.4953   316
13.5054   322
13.5154   305
13.5254   312
13.5354   328
13.5454   334
13.5554   322
13.5654   360
13.5754   310
13.5854   319
13.5954   354
13.6054   313
13.6154   324
13.6254   340
13.6354   306
13.6454   334
13.6554   322
13.6654   310
13.6754   323
13.6854   324
13.6954   328
13.7054   294
13.7154   327
13.7254   327
13.7354   335
13.7454   306
13.7554   295
13.7654   326
13.7754   346
13.7854   319
13.7954   316
13.8054   307
13.8154   317
13.8254   344
13.8354   290
13.8454   339
13.8554   301
13.8654   327
13.8754   300
13.8854   317
13.8954   320
13.9054   322
13.9154   343
13.9254   341
13.9354   319
13.9454   323
13.9554   324
13.9654   280
13.9754   306
13.9854   339
13.9954   333
14.0054   321
14.0154   367
14.0254   345
14.0354   359
14.0454   353
14.0554   382
14.0654   398
14.0754   365
14.0854   371
14.0954   384
14.1054   421
14.1154   394
14.1254   395
14.1354   425
14.1454   428
14.1554   431
14.1654   440
14.1754   440
14.1854   425
14.1954   432
14.2054   406
14.2154   394
14.2254   405
14.2354   364
14.2454   338
14.2554   361
14.2654   361
14.2754   328
14.2854   364
14.2954   330
14.3054   339
14.3154   362
14.3254   329
14.3354   310
14.3454   313
14.3554   322
14.3654   292
14.3754   284
14.3854   286
14.3954   304
14.4054   300
14.4154   309
14.4254   302
14.4354   278
14.4454   300
14.4554   292
14.4654   331
14.4754   283
14.4854   295
14.4954   286
14.5055   294
14.5155   280
14.5255   310
14.5355   317
14.5455   297
14.5555   284
14.5655   305
14.5755   309
14.5855   307
14.5955   297
14.6055   296
14.6155   307
14.6255   277
14.6355   278
14.6455   289
14.6555   274
14.6655   282
14.6755   288
14.6855   281
14.6955   270
14.7055   279
14.7155   299
14.7255   291
14.7355   272
14.7455   297
14.7555   273
14.7655   280
14.7755   265
14.7855   275
14.7955   296
14.8055   289
14.8155   274
14.8255   297
14.8355   267
14.8455   268
14.8555   285
14.8655   274
14.8755   298
14.8855   280
14.8955   282
14.9055   277
14.9155   251
14.9255   254
14.9355   275
14.9455   253
14.9555   265
14.9655   282
14.9755   294
14.9855   267
14.9955   276
15.0055   287
15.0155   296
15.0255   259
15.0355   266
15.0455   272
15.0555   269
15.0655   297
15.0755   285
15.0855   285
15.0955   264
15.1055   257
15.1155   286
15.1255   267
15.1355   243
15.1455   265
15.1555   276
15.1655   282
15.1755   265
15.1855   257
15.1955   265
15.2055   263
15.2155   250
15.2255   253
15.2355   248
15.2455   242
15.2555   235
15.2655   266
15.2755   266
15.2855   273
15.2955   268
15.3055   239
15.3155   239
15.3255   237
15.3355   240
15.3455   254
15.3555   250
15.3655   267
15.3755   270
15.3855   256
15.3955   253
15.4055   266
15.4155   248
15.4255   270
15.4355   249
15.4455   251
15.4555   251
15.4655   263
15.4755   259
15.4855   253
15.4955   267
15.5056   258
15.5156   244
15.5256   241
15.5356   254
15.5456   269
15.5556   244
15.5656   257
15.5756   240
15.5856   245
15.5956   271
15.6056   252
15.6156   263
15.6256   259
15.6356   241
15.6456   266
15.6556   259
15.6656   264
15.6756   268
15.6856   254
15.6956   263
15.7056   252
15.7156   258
15.7256   247
15.7356   283
15.7456   274
15.7556   250
15.7656   271
15.7756   269
15.7856   256
15.7956   273
15.8056   271
15.8156   244
15.8256   251
15.8356   251
15.8456   270
15.8556   246
15.8656   254
15.8756   253
15.8856   255
15.8956   261
15.9056   253
15.9156   240
15.9256   246
15.9356   238
15.9456   246
15.9556   232
15.9656   256
15.9756   239
15.9856   221
15.9956   232
16.0056   223
16.0156   208
16.0256   219
16.0356   240
16.0456   239
16.0556   219
16.0656   213
16.0756   219
16.0856   238
16.0956   218
16.1056   223
16.1156   217
16.1256   260
16.1356   227
16.1456   228
16.1556   234
16.1656   236
16.1756   223
16.1856   232
16.1956   221
16.2056   218
16.2156   232
16.2256   213
16.2356   228
16.2456   221
16.2556   227
16.2656   234
16.2756   217
16.2856   214
16.2956   221
16.3056   231
16.3156   234
16.3256   235
16.3356   216
16.3456   205
16.3556   223
16.3656   209
16.3756   200
16.3856   208
16.3956   197
16.4056   195
16.4156   223
16.4256   228
16.4356   198
16.4456   193
16.4556   206
16.4656   205
16.4756   214
16.4856   212
16.4956   225
16.5057   213
16.5157   205
16.5257   211
16.5357   212
16.5457   201
16.5557   221
16.5657   220
16.5757   221
16.5857   214
16.5957   195
16.6057   207
16.6157   207
16.6257   195
16.6357   197
16.6457   206
16.6557   199
16.6657   203
16.6757   207
16.6857   215
16.6957   204
16.7057   192
16.7157   199
16.7257   218
16.7357   210
16.7457   206
16.7557   206
16.7657   209
16.7757   199
16.7857   210
16.7957   194
16.8057   184
16.8157   201
16.8257   208
16.8357   218
16.8457   209
16.8557   191
16.8657   198
16.8757   201
16.8857   188
16.8957   201
16.9057   200
16.9157   192
16.9257   180
16.9357   176
16.9457   185
16.9557   201
16.9657   206
16.9757   214
16.9857   197
16.9957   220
17.0057   210
17.0157   184
17.0257   189
17.0357   210
17.0457   215
17.0557   207
17.0657   196
17.0757   198
17.0857   183
17.0957   202
17.1057   211
17.1157   213
17.1257   189
17.1357   183
17.1457   212
17.1557   206
17.1657   197
17.1757   196
17.1857   179
17.1957   188
17.2057   192
17.2157   204
17.2257   206
17.2357   184
17.2457   186
17.2557   188
17.2657   188
17.2757   198
17.2857   194
17.2957   202
17.3057   203
17.3157   191
17.3257   192
17.3357   173
17.3457   171
17.3557   187
17.3657   198
17.3757   189
17.3857   185
17.3957   182
17.4057   177
17.4157   175
17.4257   177
17.4357   194
17.4457   199
17.4557   196
17.4657   194
17.4757   200
17.4857   205
17.4957   193
17.5058   196
17.5158   218
17.5258   202
17.5358   191
17.5458   178
17.5558   198
17.5658   199
17.5758   196
17.5858   198
17.5958   194
17.6058   208
17.6158   216
17.6258   210
17.6358   205
17.6458   194
17.6558   206
17.6658   208
17.6758   204
17.6858   198
17.6958   187
17.7058   205
17.7158   233
17.7258   223
17.7358   205
17.7458   208
17.7558   212
17.7658   198
17.7758   191
17.7858   188
17.7958   189
17.8058   203
17.8158   200
17.8258   203
17.8358   212
17.8458   199
17.8558   207
17.8658   204
17.8758   216
17.8858   226
17.8958   226
17.9058   215
17.9158   215
17.9258   219
17.9358   217
17.9458   230
17.9558   235
17.9658   238
17.9758   224
17.9858   203
17.9958   202
18.0058   220
18.0158   242
18.0258   233
18.0358   233
18.0458   240
18.0558   241
18.0658   238
18.0758   244
18.0858   249
18.0958   244
18.1058   242
18.1158   240
18.1258   250
18.1358   252
18.1458   261
18.1558   262
18.1658   270
18.1758   270
18.1858   263
18.1958   282
18.2058   299
18.2158   301
18.2258   300
18.2358   290
18.2458   295
18.2558   318
18.2658   322
18.2758   338
18.2858   348
18.2958   328
18.3058   330
18.3158   374
18.3258   360
18.3358   337
18.3458   376
18.3558   413
18.3658   402
18.3758   412
18.3858   443
18.3958   447
18.4058   454
18.4158   483
18.4258   508
18.4358   521
18.4458   509
18.4558   529
18.4658   580
18.4758   587
18.4858   589
18.4958   605
18.5059   621
18.5159   651
18.5259   688
18.5359   694
18.5459   728
18.5559   760
18.5659   775
18.5759   799
18.5859   804
18.5959   823
18.6059   875
18.6159   902
18.6259   882
18.6359   902
18.6459   922
18.6559   904
18.6659   927
18.6759   965
18.6859  1003
18.6959  1012
18.7059   998
18.7159  1005
18.7259  1034
18.7359  1048
18.7459  1062
18.7559  1079
18.7659  1023
18.7759  1014
18.7859  1048
18.7959  1051
18.8059  1026
18.8159  1013
18.8259  1000
18.8359   998
18.8459  1014
18.8559   997
18.8659   970
18.8759   954
18.8859   931
18.8959   936
18.9059   921
18.9159   872
18.9259   860
18.9359   831
18.9459   834
18.9559   838
18.9659   830
18.9759   802
18.9859   764
18.9959   743
19.0059   735
19.0159   729
19.0259   688
19.0359   658
19.0459   639
19.0559   616
19.0659   590
19.0759   566
19.0859   542
19.0959   529
19.1059   522
19.1159   521
19.1259   481
19.1359   440
19.1459   436
19.1559   417
19.1659   413
19.1759   393
19.1859   392
19.1959   386
19.2059   389
19.2159   380
19.2259   354
19.2359   338
19.2459   324
19.2559   293
19.2659   292
19.2759   276
19.2859   266
19.2959   277
19.3059   280
19.3159   285
19.3259   267
19.3359   252
19.3459   256
19.3559   247
19.3659   229
19.3759   235
19.3859   229
19.3959   231
19.4059   241
19.4159   226
19.4259   211
19.4359   210
19.4459   217
19.4559   204
19.4659   189
19.4759   213
19.4859   194
19.4959   180
 19.506   183
 19.516   194
 19.526   192
 19.536   168
 19.546   176
 19.556   187
 19.566   173
 19.576   157
 19.586   152
 19.596   162
 19.606   152
 19.616   154
 19.626   167
 19.636   158
 19.646   155
 19.656   149
 19.666   149
 19.676   155
 19.686   162
 19.696   154
 19.706   158
 19.716   146
 19.726   146
 19.736   142
 19.746   142
 19.756   139
 19.766   130
 19.776   115
 19.786   122
 19.796   131
 19.806   132
 19.816   140
 19.826   127
 19.836   118
 19.846   123
 19.856   127
 19.866   115
 19.876   115
 19.886   129
 19.896   130
 19.906   133
 19.916   120
 19.926   138
 19.936   146
 19.946   152
 19.956   151
 19.966   162
 19.976   174
 19.986   168
 19.996   170
 20.006   181
 20.016   181
 20.026   189
 20.036   205
 20.046   207
 20.056   226
 20.066   222
 20.076   249
 20.086   264
 20.096   239
 20.106   244
 20.116   244
 20.126   267
 20.136   284
 20.146   308
 20.156   325
 20.166   321
 20.176   319
 20.186   343
 20.196   316
 20.206   284
 20.216   298
 20.226   289
 20.236   298
 20.246   292
 20.256   278
 20.266   267
 20.276   273
 20.286   263
 20.296   251
 20.306   236
 20.316   220
 20.326   209
 20.336   198
 20.346   197
 20.356   177
 20.366   171
 20.376   161
 20.386   156
 20.396   138
 20.406   133
 20.416   134
 20.426   132
 20.436   131
 20.446   116
 20.456   114
 20.466   105
 20.476   115
 20.486   127
 20.496   118
20.5061   101
20.5161    95
20.5261   100
20.5361    98
20.5461   100
20.5561    97
20.5661   108
20.5761   103
20.5861   104
20.5961   104
20.6061   107
20.6161   117
20.6261   126
20.6361   105
20.6461   120
20.6561   132
20.6661   116
20.6761   128
20.6861   124
20.6961   128
20.7061   133
20.7161   135
20.7261   138
20.7361   138
20.7461   140
20.7561   127
20.7661   136
20.7761   155
20.7861   150
20.7961   159
20.8061   165
20.8161   143
20.8261   164
20.8361   168
20.8461   163
20.8561   162
20.8661   152
20.8761   159
20.8861   164
20.8961   161
20.9061   165
20.9161   173
20.9261   167
20.9361   169
20.9461   162
20.9561   169
20.9661   186
20.9761   164
20.9861   172
20.9961   158
21.0061   158
21.0161   174
21.0261   176
21.0361   165
21.0461   161
21.0561   163
21.0661   159
21.0761   162
21.0861   166
21.0961   179
21.1061   164
21.1161   151
21.1261   154
21.1361   161
21.1461   137
21.1561   139
21.1661   138
21.1761   134
21.1861   148
21.1961   139
21.2061   136
21.2161   130
21.2261   139
21.2361   133
21.2461   131
21.2561   118
21.2661   115
21.2761   131
21.2861   114
21.2961   101
21.3061   120
21.3161   108
21.3261   119
21.3361   109
21.3461   111
21.3561   115
21.3661   114
21.3761    89
21.3861    86
21.3961    92
21.4061    92
21.4161    84
21.4261    84
21.4361    91
21.4461    89
21.4561    77
21.4661    83
21.4761    78
21.4861    76
21.4961    76
21.5062    75
21.5162    71
21.5262    72
21.5362    78
21.5462    69
21.5562    66
21.5662    62
21.5762    53
21.5862    60
21.5962    64
21.6062    63
21.6162    70
21.6262    58
21.6362    65
21.6462    56
21.6562    59
21.6662    55
21.6762    62
21.6862    58
21.6962    52
21.7062    56
21.7162    62
21.7262    51
21.7362    53
21.7462    52
21.7562    43
21.7662    53
21.7762    43
21.7862    44
21.7962    49
21.8062    45
21.8162    37
21.8262    46
21.8362    48
21.8462    47
21.8562    45
21.8662    48
21.8762    49
21.8862    45
21.8962    44
21.9062    51
21.9162    40
21.9262    38
21.9362    41
21.9462    43
21.9562    39
21.9662    45
21.9762    52
21.9862    50
21.9962    36
22.0062    36
22.0162    31
22.0262    32
22.0362    38
22.0462    34
22.0562    28
22.0662    36
22.0762    34
22.0862    32
22.0962    33
22.1062    37
22.1162    31
22.1262    42
22.1362    33
22.1462    32
22.1562    29
22.1662    32
22.1762    35
22.1862    40
22.1962    32
22.2062    31
22.2162    36
22.2262    28
22.2362    26
22.2462    28
22.2562    35
22.2662    34
22.2762    37
22.2862    32
22.2962    25
22.3062    21
22.3162    36
22.3262    40
22.3362    29
22.3462    35
22.3562    29
22.3662    36
22.3762    30
22.3862    31
22.3962    23
22.4062    19
22.4162    29
22.4262    36
22.4362    30
22.4462    42
22.4562    31
22.4662    27
22.4762    39
22.4862    31
22.4962    31
22.5063    30
22.5163    40
22.5263    34
22.5363    31
22.5463    33
22.5563    27
22.5663    31
22.5763    33
22.5863    41
22.5963    30
22.6063    40
22.6163    33
22.6263    41
22.6363    42
22.6463    41
22.6563    38
22.6663    48
22.6763    42
22.6863    46
22.6963    54
22.7063    47
22.7163    44
22.7263    40
22.7363    44
22.7463    42
22.7563    36
22.7663    34
22.7763    49
22.7863    46
22.7963    44
22.8063    52
22.8163    33
22.8263    44
22.8363    42
22.8463    43
22.8563    41
22.8663    44
22.8763    47
22.8863    34
22.8963    29
22.9063    25
22.9163    28
22.9263    32
22.9363    31
22.9463    27
22.9563    30
22.9663    26
22.9763    22
22.9863    24
22.9963    28
23.0063    23
23.0163    18
23.0263    22
23.0363    31
23.0463    25
23.0563    28
23.0663    23
23.0763    23
23.0863    27
23.0963    23
23.1063    31
23.1163    24
23.1263    24
23.1363    29
23.1463    26
23.1563    22
23.1663    28
23.1763    15
23.1863    25
23.1963    26
23.2063    17
23.2163    26
23.2263    24
23.2363    20
23.2463    23
23.2563    27
23.2663    21
23.2763    21
23.2863    22
23.2963    20
23.3063    18
23.3163    29
23.3263    15
23.3363    17
23.3463    12
23.3563    19
23.3663    21
23.3763    19
23.3863    20
23.3963    16
23.4063    20
23.4163    34
23.4263    14
23.4363    21
23.4463    16
23.4563    16
23.4663    24
23.4763    26
23.4863    20
23.4963    26
23.5064    27
23.5164    24
23.5264    19
23.5364    20
23.5464    19
23.5564    23
23.5664    23
23.5764    14
23.5864    22
23.5964    13
23.6064    23
23.6164    16
23.6264    14
23.6364     9
23.6464    14
23.6564    16
23.6664    11
23.6764    21
23.6864    17
23.6964    29
23.7064    27
23.7164    18
23.7264    18
23.7364    15
23.7464    22
23.7564    15
23.7664    24
23.7764    16
23.7864    18
23.7964    18
23.8064    16
23.8164    17
23.8264    16
23.8364    17
23.8464    13
23.8564    14
23.8664    21
23.8764    17
23.8864    21
23.8964    19
23.9064    18
23.9164    21
23.9264    18
23.9364    23
23.9464    19
23.9564    14
23.9664    17
23.9764    22
23.9864    18
23.9964    19
24.0064    19
24.0164    15
24.0264    14
24.0364    17
24.0464    15
24.0564    14
24.0664    17
24.0764    18
24.0864    19
24.0964    13
24.1064    17
24.1164    16
24.1264    15
24.1364    15
24.1464    14
24.1564    17
24.1664    15
24.1764    17
24.1864    12
24.1964    14
24.2064    15
24.2164    11
24.2264    18
24.2364    18
24.2464    16
24.2564    15
24.2664    14
24.2764     9
24.2864    18
24.2964    13
24.3064    13
24.3164    12
24.3264    12
24.3364    22
24.3464    15
24.3564    10
24.3664    12
24.3764    21
24.3864     9
24.3964    17
24.4064     9
24.4164     8
24.4264    13
24.4364    10
24.4464    19
24.4564    14
24.4664    19
24.4764    13
24.4864    17
24.4964    21
24.5065    12
24.5165    13
24.5265    19
24.5365     9
24.5465    13
24.5565    13
24.5665    16
24.5765    15
24.5865    14
24.5965    16
24.6065    11
24.6165     8
24.6265     9
24.6365    15
24.6465    16
24.6565    15
24.6665    18
24.6765    13
24.6865    14
24.6965    11
24.7065    15
24.7165    10
24.7265    14
24.7365     8
24.7465    15
24.7565    12
24.7665    17
24.7765    18
24.7865    13
24.7965    13
24.8065    13
24.8165    19
24.8265    12
24.8365    10
24.8465    18
24.8565    19
24.8665    18
24.8765    10
24.8865    15
24.8965     9
24.9065    22
24.9165    12
24.9265    18
24.9365    16
24.9465     8
24.9565    13
24.9665     5
24.9765    10
24.9865    11
24.9965    17
25.0065    15
25.0165    17
25.0265     7
25.0365    15
25.0465    14
25.0565    15
25.0665    12
25.0765    14
25.0865    10
25.0965    10
25.1065    10
25.1165     9
25.1265    13
25.1365     8
25.1465    12
25.1565    14
25.1665    13
25.1765     8
25.1865    14
25.1965    10
25.2065    12
25.2165     7
25.2265    11
25.2365    11
25.2465    16
25.2565     8
25.2665    13
25.2765    17
25.2865    12
25.2965    12
25.3065    14
25.3165    11
25.3265    16
25.3365    21
25.3465    15
25.3565    12
25.3665    11
25.3765    11
25.3865     8
25.3965    13
25.4065    14
25.4165    10
25.4265    13
25.4365    16
25.4465    10
25.4565    10
25.4665     9
25.4765    13
25.4865    11
25.4965    14
25.5066    11
25.5166    13
25.5266    15
25.5366     8
25.5466    12
25.5566    14
25.5666    12
25.5766     9
25.5866     6
25.5966    10
25.6066    12
25.6166     6
25.6266    14
25.6366    13
25.6466    10
25.6566     6
25.6666     9
25.6766     7
25.6866    11
25.6966    14
25.7066    11
25.7166     8
25.7266    12
25.7366    10
25.7466    17
25.7566    17
25.7666     8
25.7766    16
25.7866     8
25.7966     9
25.8066    10
25.8166    13
25.8266    10
25.8366     9
25.8466    12
25.8566     9
25.8666     9
25.8766     9
25.8866     9
25.8966     9
25.9066     8
25.9166     9
25.9266    12
25.9366    12
25.9466    12
25.9566     9
25.9666    10
25.9766     7
25.9866     6
25.9966    10
26.0066     8
26.0166     5
26.0266    10
26.0366    10
26.0466     8
26.0566     6
26.0666     5
26.0766     4
26.0866     8
26.0966     8
26.1066    13
26.1166    14
26.1266     9
26.1366     6
26.1466     8
26.1566     8
26.1666     6
26.1766    13
26.1866    10
26.1966    11
26.2066    12
26.2166     9
26.2266     3
26.2366    10
26.2466     9
26.2566    10
26.2666    11
26.2766     9
26.2866     6
26.2966     8
26.3066    10
26.3166     4
26.3266     5
26.3366     7
26.3466     8
26.3566     4
26.3666     6
26.3766     6
26.3866    10
26.3966     9
26.4066    10
26.4166    13
26.4266    10
26.4366    10
26.4466    12
26.4566     8
26.4666     8
26.4766     8
26.4866     6
26.4966    12
26.5067    14
26.5167    12
26.5267     7
26.5367    11
26.5467    10
26.5567    10
26.5667     6
26.5767     7
26.5867     4
26.5967     8
26.6067     4
26.6167     5
26.6267     9
26.6367     9
26.6467     8
26.6567     6
26.6667     4
26.6767     6
26.6867     8
26.6967    10
26.7067     9
26.7167     9
26.7267    10
26.7367     7
26.7467     6
26.7567     7
26.7667    12
26.7767     8
26.7867     8
26.7967     8
26.8067    13
26.8167     9
26.8267    10
26.8367     8
26.8467     7
26.8567     6
26.8667    11
26.8767    12
26.8867    10
26.8967     6
26.9067     8
26.9167     8
26.9267     7
26.9367     7
26.9467     8
26.9567     8
26.9667    12
26.9767    12
26.9867    10
26.9967     6
27.0067     9
27.0167     5
27.0267     4
27.0367     6
27.0467     8
27.0567     4
27.0667     4
27.0767     9
27.0867     8
27.0967     5
27.1067     5
27.1167     8
27.1267     9
27.1367     9
27.1467     7
27.1567     7
27.1667     8
27.1767     6
27.1867     8
27.1967     6
27.2067     5
27.2167     4
27.2267     4
27.2367     9
27.2467     5
27.2567     6
27.2667     7
27.2767     8
27.2867    15
27.2967    11
27.3067     5
27.3167     8
27.3267     6
27.3367     7
27.3467     9
27.3567     7
27.3667     7
27.3767     6
27.3867     4
27.3967     4
27.4067     9
27.4167     6
27.4267     8
27.4367     9
27.4467     6
27.4567     6
27.4667     5
27.4767     6
27.4867     8
27.4967     5
27.5068     4
27.5168     5
27.5268     5
27.5368     6
27.5468     7
27.5568     7
27.5668     8
27.5768     5
27.5868     2
27.5968     5
27.6068     4
27.6168     6
27.6268     4
27.6368     3
27.6468     6
27.6568     7
27.6668     2
27.6768     5
27.6868     6
27.6968     5
27.7068     4
27.7168     7
27.7268     7
27.7368     8
27.7468     9
27.7568     4
27.7668     5
27.7768     6
27.7868     4
27.7968     5
27.8068     5
27.8168     4
27.8268     5
27.8368     4
27.8468     4
27.8568     3
27.8668     3
27.8768     4
27.8868     4
27.8968     4
27.9068     6
27.9168     6
27.9268     5
27.9368     8
27.9468     7
27.9568     7
27.9668     6
27.9768     6
27.9868     4
27.9968     4
28.0068     5
28.0168     6
28.0268     4
28.0368     2
28.0468     6
28.0568     5
28.0668     4
28.0768     7
28.0868     5
28.0968    10
28.1068     6
28.1168     5
28.1268     6
28.1368     5
28.1468     6
28.1568     6
28.1668     2
28.1768     3
28.1868     5
28.1968     5
28.2068     6
28.2168     4
28.2268     5
28.2368     5
28.2468     5
28.2568     3
28.2668     4
28.2768     7
28.2868     5
28.2968     3
28.3068     3
28.3168     2
28.3268     2
28.3368     3
28.3468     2
28.3568     5
28.3668     6
28.3768     5
28.3868     5
28.3968     3
28.4068     4
28.4168     6
28.4268     5
28.4368     5
28.4468     5
28.4568     7
28.4668     8
28.4768     6
28.4868     6
28.4968     7
28.5069     5
28.5169     6
28.5269     4
28.5369     3
28.5469     6
28.5569     8
28.5669     4
28.5769     2
28.5869     3
28.5969     4
28.6069     4
28.6169     6
28.6269     5
28.6369     4
28.6469     5
28.6569     6
28.6669     5
28.6769     3
28.6869     5
28.6969     4
28.7069     4
28.7169     8
28.7269     6
28.7369     2
28.7469     4
28.7569     4
28.7669     3
28.7769     5
28.7869     5
28.7969     3
28.8069     2
28.8169     4
28.8269     4
28.8369     5
28.8469     5
28.8569     7
28.8669     6
28.8769     4
28.8869     5
28.8969     3
28.9069     1
28.9169     3
28.9269     2
28.9369     2
28.9469     1
28.9569     4
28.9669     6
28.9769     5
28.9869     3
28.9969     2
29.0069     4
29.0169     6
29.0269     4
29.0369     3
29.0469     2
29.0569     3
29.0669     4
29.0769     3
29.0869     5
29.0969     7
29.1069     5
29.1169     4
29.1269     4
29.1369     6
29.1469     7
29.1569     3
29.1669     3
29.1769     5
29.1869     3
29.1969     4
29.2069     4
29.2169     3
29.2269     3
29.2369     2
29.2469     2
29.2569     4
29.2669     5
29.2769     5
29.2869     4
29.2969     4
29.3069     5
29.3169     4
29.3269     4
29.3369     5
29.3469     5
29.3569     4
29.3669     4
29.3769     5
29.3869     3
29.3969     2
29.4069     3
29.4169     2
29.4269     3
29.4369     4
29.4469     3
29.4569     3
29.4669     4
29.4769     3
29.4869     1
29.4969     3
 29.507     7
 29.517     5
 29.527     2
 29.537     2
 29.547     2
 29.557     3
 29.567     4
 29.577     3
 29.587     1
 29.597     3
 29.607     6
 29.617     4
 29.627     2
 29.637     5
 29.647     6
 29.657     3
 29.667     4
 29.677     4
 29.687     4
 29.697     3
 29.707     2
 29.717     4
 29.727     4
 29.737     3
 29.747     3
 29.757     3
 29.767     3
 29.777     2
 29.787     3
 29.797     2
 29.807     4
 29.817     6
 29.827     3
 29.837     1
 29.847     2
 29.857     3
 29.867     3
 29.877     2
 29.887     2
 29.897     2
 29.907     2
 29.917     4
 29.927     3
 29.937     4
 29.947     4
 29.957     5
 29.967     4
 29.977     2
 29.987     3
 29.997     2
 30.007     2
 30.017     3
 30.027     3
 30.037     2
 30.047     4
 30.057     3
 30.067     1
 30.077     2
 30.087     2
 30.097     4
 30.107     2
 30.117     2
 30.127     3
 30.137     2
 30.147     2
 30.157     2
 30.167     4
 30.177     5
 30.187     5
 30.197     4
 30.207     1
 30.217     2
 30.227     4
 30.237     3
 30.247     2
 30.257     3
 30.267     3
 30.277     5
 30.287     6
 30.297     4
 30.307     2
 30.317     2
 30.327     2
 30.337     3
 30.347     3
 30.357     3
 30.367     4
 30.377     3
 30.387     2
 30.397     2
 30.407     3
 30.417     2
 30.427     4
 30.437     4
 30.447     1
 30.457     2
 30.467     4
 30.477     5
 30.487     3
 30.497     1
30.5071     2
30.5171     1
30.5271     2
30.5371     2
30.5471     1
30.5571     3
30.5671     3
30.5771     0
30.5871     1
30.5971     2
30.6071     2
30.6171     3
30.6271     2
30.6371     2
30.6471     3
30.6571     2
30.6671     2
30.6771     1
30.6871     3
30.6971     4
30.7071     3
30.7171     3
30.7271     2
30.7371     3
30.7471     4
30.7571     4
30.7671     5
30.7771     1
30.7871     0
30.7971     1
30.8071     2
30.8171     3
30.8271     3
30.8371     1
30.8471     1
30.8571     4
30.8671     4
30.8771     1
30.8871     1
30.8971     3
30.9071     5
30.9171     3
30.9271     4
30.9371     2
30.9471     1
30.9571     2
30.9671     2
30.9771     3
30.9871     3
30.9971     4
31.0071     3
31.0171     2
31.0271     2
31.0371     3
31.0471     2
31.0571     1
31.0671     2
31.0771     5
31.0871     3
31.0971     1
31.1071     3
31.1171     1
31.1271     1
31.1371     3
31.1471     1
31.1571     1
31.1671     3
31.1771     4
31.1871     1
31.1971     2
31.2071     3
31.2171     3
31.2271     2
31.2371     1
31.2471     2
31.2571     3
31.2671     6
31.2771     5
31.2871     4
31.2971     4
31.3071     3
31.3171     2
31.3271     4
31.3371     3
31.3471     3
31.3571     2
31.3671     1
31.3771     2
31.3871     2
31.3971     4
31.4071     2
31.4171     4
31.4271     3
31.4371     5
31.4471     2
31.4571     2
31.4671     2
31.4771     3
31.4871     2
31.4971     1
31.5072     1
31.5172     1
31.5272     2
31.5372     2
31.5472     2
31.5572     2
31.5672     1
31.5772     2
31.5872     2
31.5972     1
31.6072     2
31.6172     3
31.6272     2
31.6372     2
31.6472     1
31.6572     2
31.6672     1
31.6772     0
31.6872     2
31.6972     4
31.7072     3
31.7172     2
31.7272     2
31.7372     5
31.7472     2
31.7572     2
31.7672     4
31.7772     5
31.7872     3
31.7972     5
31.8072     7
31.8172     3
31.8272     6
31.8372     4
31.8472     2
31.8572     2
31.8672     5
31.8772     5
31.8872     5
31.8972     7
31.9072     5
31.9172     3
31.9272     3
31.9372     5
31.9472     4
31.9572     4
31.9672     4
31.9772     5
31.9872     2
31.9972     2
32.0072     1
32.0172     4
32.0272     8
32.0372     7
32.0472     3
32.0572     4
32.0672     7
32.0772     5
32.0872     8
32.0972     8
32.1072     6
32.1172     7
32.1272     4
32.1372     3
32.1472     4
32.1572     6
32.1672     3
32.1772     7
32.1872     5
32.1972     5
32.2072     6
32.2172     4
32.2272     3
32.2372     6
32.2472     6
32.2572     7
32.2672     6
32.2772     6
32.2872     7
32.2972     7
32.3072    10
32.3172     6
32.3272     2
32.3372     4
32.3472     5
32.3572     4
32.3672     3
32.3772     2
32.3872     3
32.3972     2
32.4072     3
32.4172     2
32.4272     2
32.4372     4
32.4472     6
32.4572     4
32.4672     5
32.4772     3
32.4872     1
32.4972     1
32.5073     4
32.5173     3
32.5273     1
32.5373     1
32.5473     2
32.5573     2
32.5673     1
32.5773     0
32.5873     1
32.5973     1
32.6073     0
32.6173     2
32.6273     2
32.6373     1
32.6473     1
32.6573     0
32.6673     1
32.6773     1
32.6873     1
32.6973     0
32.7073     1
32.7173     1
32.7273     2
32.7373     2
32.7473     1
32.7573     2
32.7673     2
32.7773     1
32.7873     1
32.7973     1
32.8073     1
32.8173     1
32.8273     4
32.8373     2
32.8473     4
32.8573     1
32.8673     1
32.8773     2
32.8873     2
32.8973     1
32.9073     2
32.9173     2
32.9273     1
32.9373     0
32.9473     2
32.9573     3
32.9673     2
32.9773     2
32.9873     2
32.9973     2
33.0073     2
33.0173     1
33.0273     2
33.0373     2
33.0473     2
33.0573     1
33.0673     1
33.0773     2
33.0873     2
33.0973     1
33.1073     1
33.1173     0
33.1273     0
33.1373     1
33.1473     1
33.1573     0
33.1673     1
33.1773     2
33.1873     2
33.1973     2
33.2073     1
33.2173     1
33.2273     1
33.2373     0
33.2473     1
33.2573     2
33.2673     1
33.2773     0
33.2873     1
33.2973     2
33.3073     1
33.3173     0
33.3273     0
33.3373     1
33.3473     3
33.3573     1
33.3673     3
33.3773     4
33.3873     2
33.3973     0
33.4073     0
33.4173     1
33.4273     1
33.4373     1
33.4473     0
33.4573     1
33.4673     0
33.4773     2
33.4873     2
33.4973     1
33.5074     0
33.5174     1
33.5274     2
33.5374     2
33.5474     1
33.5574     1
33.5674     0
33.5774     0
33.5874     1
33.5974     0
33.6074     1
33.6174     1
33.6274     1
33.6374     2
33.6474     3
33.6574     2
33.6674     1
33.6774     0
33.6874     1
33.6974     0
33.7074     1
33.7174     2
33.7274     1
33.7374     0
33.7474     0
33.7574     1
33.7674     1
33.7774     0
33.7874     0
33.7974     2
33.8074     4
33.8174     1
33.8274     0
33.8374     1
33.8474     1
33.8574     1
33.8674     1
33.8774     0
33.8874     1
33.8974     1
33.9074     0
33.9174     2
33.9274     2
33.9374     1
33.9474     0
33.9574     1
33.9674     0
33.9774     1
33.9874     1
33.9974     0
34.0074     1
34.0174     1
34.0274     0
34.0374     1
34.0474     0
34.0574     1
34.0674     2
34.0774     1
34.0874     1
34.0974     0
34.1074     1
34.1174     1
34.1274     1
34.1374     1
34.1474     2
34.1574     2
34.1674     1
34.1774     2
34.1874     2
34.1974     1
34.2074     2
34.2174     1
34.2274     1
34.2374     1
34.2474     3
34.2574     1
34.2674     2
34.2774     1
34.2874     1
34.2974     2
34.3074     2
34.3174     0
34.3274     0
34.3374     1
34.3474     2
34.3574     1
34.3674     2
34.3774     2
34.3874     2
34.3974     1
34.4074     1
34.4174     0
34.4274     1
34.4374     1
34.4474     0
34.4574     1
34.4674     1
34.4774     1
34.4874     1
34.4974     1
34.5075     0
34.5175     0
34.5275     1
34.5375     1
34.5475     0
34.5575     0
34.5675     0
34.5775     0
34.5875     1
34.5975     1
34.6075     2
34.6175     1
34.6275     0
34.6375     0
34.6475     1
34.6575     1
34.6675     0
34.6775     0
34.6875     1
34.6975     2
34.7075     1
34.7175     0
34.7275     1
34.7375     0
34.7475     0
34.7575     0
34.7675     1
34.7775     2
34.7875     2
34.7975     0
34.8075     1
34.8175     1
34.8275     0
34.8375     1
34.8475     0
34.8575     0
34.8675     1
34.8775     2
34.8875     0
34.8975     1
34.9075     1
34.9175     0
34.9275     0
34.9375     0
34.9475     1
34.9575     2
34.9675     1
34.9775     1
34.9875     1
34.9975     0
35.0075     0
35.0175     1
35.0275     0
35.0375     0
35.0475     1
35.0575     1
35.0675     1
35.0775     0
35.0875     1
35.0975     1
35.1075     0
35.1175     0
35.1275     1
35.1375     0
35.1475     0
35.1575     2
35.1675     3
35.1775     0
35.1875     0
35.1975     0
35.2075     1
35.2175     1
35.2275     2
35.2375     1
35.2475     1
35.2575     2
35.2675     2
35.2775     2
35.2875     0
35.2975     0
35.3075     2
35.3175     2
35.3275     0
35.3375     0
35.3475     0
35.3575     0
35.3675     2
35.3775     2
35.3875     1
35.3975     0
35.4075     0
35.4175     0
35.4275     0
35.4375     0
35.4475     0
35.4575     1
35.4675     0
35.4775     1
35.4875     2
35.4975     1
35.5076     1
35.5176     1
35.5276     0
35.5376     0
35.5476     1
35.5576     0
35.5676     1
35.5776     0
35.5876     1
35.5976     1
35.6076     0
35.6176     0
35.6276     1
35.6376     2
35.6476     2
35.6576     1
35.6676     0
35.6776     0
35.6876     0
35.6976     0
35.7076     1
35.7176     1
35.7276     0
35.7376     1
35.7476     0
35.7576     0
35.7676     1
35.7776     0
35.7876     0
35.7976     2
35.8076     2
35.8176     0
35.8276     1
35.8376     1
35.8476     1
35.8576     1
35.8676     0
35.8776     0
35.8876     1
35.8976     0
35.9076     1
35.9176     0
35.9276     0
35.9376     1
35.9476     1
35.9576     2
35.9676     1
35.9776     2
35.9876     2
35.9976     0
36.0076     0
36.0176     0
36.0276     0
36.0376     0
36.0476     0
36.0576     0
36.0676     1
36.0776     0
36.0876     0
36.0976     1
36.1076     1
36.1176     2
36.1276     1
36.1376     3
36.1476     1
36.1576     0
36.1676     1
36.1776     1
36.1876     1
36.1976     0
36.2076     1
36.2176     1
36.2276     1
36.2376     0
36.2476     1
36.2576     2
36.2676     1
36.2776     1
36.2876     3
36.2976     2
36.3076     2
36.3176     1
36.3276     1
36.3376     2
36.3476     1
36.3576     2
36.3676     2
36.3776     2
36.3876     1
36.3976     1
36.4076     2
36.4176     1
36.4276     1
36.4376     2
36.4476     1
36.4576     1
36.4676     1
36.4776     0
36.4876     1
36.4976     1
36.5077     0
36.5177     0
36.5277     1
36.5377     1
36.5477     1
36.5577     1
36.5677     0
36.5777     0
36.5877     1
36.5977     2
36.6077     1
36.6177     0
36.6277     1
36.6377     1
36.6477     0
36.6577     0
36.6677     0
36.6777     0
36.6877     0
36.6977     0
36.7077     0
36.7177     1
36.7277     1
36.7377     1
36.7477     1
36.7577     0
36.7677     1
36.7777     0
36.7877     1
36.7977     2
36.8077     1
36.8177     0
36.8277     0
36.8377     0
36.8477     0
36.8577     0
36.8677     1
36.8777     0
36.8877     1
36.8977     2
36.9077     1
36.9177     0
36.9277     0
36.9377     1
36.9477     1
36.9577     1
36.9677     0
36.9777     0
36.9877     1
36.9977     1
37.0077     0
37.0177     0
37.0277     0
37.0377     0
37.0477     1
37.0577     0
37.0677     1
37.0777     1
37.0877     1
37.0977     0
37.1077     1
37.1177     1
37.1277     0
37.1377     0
37.1477     1
37.1577     1
37.1677     0
37.1777     0
37.1877     1
37.1977     0
37.2077     1
37.2177     0
37.2277     0
37.2377     1
37.2477     0
37.2577     0
37.2677     0
37.2777     0
37.2877     1
37.2977     0
37.3077     1
37.3177     1
37.3277     0
37.3377     0
37.3477     0
37.3577     1
37.3677     1
37.3777     1
37.3877     0
37.3977     0
37.4077     1
37.4177     1
37.4277     0
37.4377     0
37.4477     1
37.4577     0
37.4677     1
37.4777     1
37.4877     1
37.4977     0
37.5078     0
37.5178     1
37.5278     0
37.5378     0
37.5478     0
37.5578     0
37.5678     0
37.5778     0
37.5878     0
37.5978     0
37.6078     1
37.6178     1
37.6278     1
37.6378     2
37.6478     1
37.6578     1
37.6678     2
37.6778     0
37.6878     0
37.6978     1
37.7078     0
37.7178     0
37.7278     0
37.7378     1
37.7478     1
37.7578     0
37.7678     0
37.7778     0
37.7878     0
37.7978     0
37.8078     1
37.8178     0
37.8278     1
37.8378     0
37.8478     0
37.8578     0
37.8678     1
37.8778     1
37.8878     1
37.8978     0
37.9078     0
37.9178     1
37.9278     0
37.9378     0
37.9478     0
37.9578     0
37.9678     0
37.9778     1
37.9878     0
37.9978     0
38.0078     0
38.0178     0
38.0278     0
38.0378     0
38.0478     0
38.0578     1
38.0678     0
38.0778     0
38.0878     0
38.0978     0
38.1078     1
38.1178     0
38.1278     0
38.1378     0
38.1478     1
38.1578     1
38.1678     0
38.1778     1
38.1878     1
38.1978     0
38.2078     1
38.2178     2
38.2278     1
38.2378     0
38.2478     0
38.2578     0
38.2678     0
38.2778     0
38.2878     0
38.2978     1
38.3078     1
38.3178     0
38.3278     0
38.3378     0
38.3478     0
38.3578     1
38.3678     0
38.3778     1
38.3878     0
38.3978     1
38.4078     1
38.4178     0
38.4278     0
38.4378     0
38.4478     0
38.4578     0
38.4678     0
38.4778     0
38.4878     0
38.4978     0
38.5079     0
38.5179     0
38.5279     0
38.5379     1
38.5479     0
38.5579     0
38.5679     0
38.5779     0
38.5879     0
38.5979     1
38.6079     1
38.6179     0
38.6279     0
38.6379     0
38.6479     0
38.6579     0
38.6679     0
38.6779     1
38.6879     0
38.6979     0
38.7079     0
38.7179     0
38.7279     0
38.7379     0
38.7479     0
38.7579     0
38.7679     0
38.7779     0
38.7879     0
38.7979     0
38.8079     0
38.8179     1
38.8279     0
38.8379     0
38.8479     0
38.8579     0
38.8679     1
38.8779     0
38.8879     0
38.8979     0
38.9079     0
38.9179     0
38.9279     0
38.9379     0
38.9479     0
38.9579     0
38.9679     0
38.9779     0
38.9879     0
38.9979     1
39.0079     0
39.0179     1
39.0279     1
39.0379     0
39.0479     0
39.0579     0
39.0679     0
39.0779     0
39.0879     0
39.0979     0
39.1079     0
39.1179     1
39.1279     0
39.1379     0
39.1479     1
39.1579     0
39.1679     0
39.1779     0
39.1879     0
39.1979     0
39.2079     0
39.2179     0
39.2279     0
39.2379     0
39.2479     0
39.2579     0
39.2679     0
39.2779     0
39.2879     0
39.2979     0
39.3079     0
39.3179     0
39.3279     0
39.3379     0
39.3479     0
39.3579     0
39.3679     0
39.3779     0
39.3879     0
39.3979     0
39.4079     0
39.4179     0
39.4279     0
39.4379     0
39.4479     0
39.4579     0
39.4679     0
39.4779     0
39.4879     0
39.4979     0
 39.508     0
 39.518     0
 39.528     0
 39.538     0
 39.548     0
 39.558     1
 39.568     0
 39.578     0
 39.588     1
 39.598     0
 39.608     0
 39.618     0
 39.628     0
 39.638     0
 39.648     0
 39.658     0
 39.668     0
 39.678     0
 39.688     0
 39.698     0
 39.708     0
 39.718     0
 39.728     0
 39.738     0
 39.748     0
 39.758     0
 39.768     0
 39.778     1
 39.788     0
 39.798     0
 39.808     0
 39.818     0
 39.828     0
 39.838     0
 39.848     0
 39.858     0
 39.868     0
 39.878     0
 39.888     0
 39.898     0
 39.908     1
 39.918     0
 39.928     1
 39.938     0
 39.948     0
 39.958     0
 39.968     0
 39.978     0
 39.988     1
 39.998     0
