Bruker Nano GmbH Berlin, Germany
Esprit 1.9

Date: 4/5/2021 6:28:00 PM
Real time: 32096
Life time: 29987
Pulse density: 32022


Detector type: XFlash 430
Window type: Custom type
Detector thickness: 0.45
Si dead layer:0.029

Calibration, lin.: 10.001
Calibration, abs.: -956.096
Mn FWHM: 143.526
Fano factor: 0.114
Channels: 4096

Energy Counts
-0.9561     0
-0.9461     0
-0.9361     0
-0.9261     0
-0.9161     0
-0.9061     0
-0.8961     0
-0.8861     0
-0.8761     0
-0.8661     0
-0.8561     0
-0.8461     0
-0.8361     0
-0.8261     0
-0.8161     0
-0.8061     0
-0.7961     0
-0.7861     0
-0.7761     0
-0.7661     0
-0.7561     0
-0.7461     0
-0.7361     0
-0.7261     0
-0.7161     0
-0.7061     0
-0.6961     0
-0.6861     0
-0.6761     0
-0.6661     0
-0.6561     0
-0.6461     0
-0.6361     0
-0.6261     0
-0.6161     0
-0.6061     0
-0.5961     0
-0.5861     0
-0.5761     0
-0.5661     0
-0.5561     0
-0.5461     0
-0.5361     0
-0.5261     0
-0.5161     0
-0.5061     0
 -0.496     0
 -0.486     0
 -0.476     0
 -0.466     0
 -0.456     0
 -0.446     0
 -0.436     0
 -0.426     0
 -0.416     0
 -0.406     0
 -0.396     0
 -0.386     0
 -0.376     0
 -0.366     0
 -0.356     0
 -0.346     0
 -0.336     0
 -0.326     0
 -0.316     0
 -0.306     0
 -0.296     0
 -0.286     0
 -0.276     0
 -0.266     1
 -0.256     2
 -0.246     1
 -0.236     3
 -0.226     2
 -0.216     2
 -0.206     4
 -0.196     3
 -0.186     3
 -0.176     1
 -0.166     5
 -0.156     1
 -0.146     9
 -0.136    12
 -0.126    18
 -0.116    91
 -0.106   236
 -0.096   558
 -0.086  1337
 -0.076  2717
 -0.066  5272
 -0.056  8961
 -0.046 14206
 -0.036 20454
 -0.026 26810
 -0.016 32332
 -0.006 35404
  0.004 35716
  0.014 32430
  0.024 27117
  0.034 20762
  0.044 14339
  0.054  9365
  0.064  5388
  0.074  2779
  0.084  1342
  0.094   597
  0.104   213
  0.114    85
  0.124    36
  0.134     5
  0.144     4
  0.154     2
  0.164     0
  0.174     1
  0.184     0
  0.194     0
  0.204     0
  0.214    -1
  0.224    -1
  0.234     0
  0.244     1
  0.254     0
  0.264    -1
  0.274     0
  0.284     0
  0.294     0
  0.304    14
  0.314    53
  0.324    52
  0.334    42
  0.344    51
  0.354    48
  0.364    39
  0.374    57
  0.384    62
  0.394    37
  0.404    45
  0.414    41
  0.424    35
  0.434    50
  0.444    39
  0.454    39
  0.464    37
  0.474    37
  0.484    50
  0.494    50
 0.5041    46
 0.5141    39
 0.5241    43
 0.5341    35
 0.5441    40
 0.5541    42
 0.5641    47
 0.5741    36
 0.5841    40
 0.5941    35
 0.6041    35
 0.6141    34
 0.6241    36
 0.6341    35
 0.6441    44
 0.6541    32
 0.6641    38
 0.6741    40
 0.6841    38
 0.6941    46
 0.7041    37
 0.7141    27
 0.7241    29
 0.7341    40
 0.7441    29
 0.7541    38
 0.7641    32
 0.7741    28
 0.7841    34
 0.7941    39
 0.8041    38
 0.8141    37
 0.8241    35
 0.8341    28
 0.8441    32
 0.8541    30
 0.8641    33
 0.8741    31
 0.8841    37
 0.8941    31
 0.9041    38
 0.9141    31
 0.9241    33
 0.9341    38
 0.9441    36
 0.9541    44
 0.9641    33
 0.9741    39
 0.9841    36
 0.9941    25
 1.0041    40
 1.0141    32
 1.0241    41
 1.0341    32
 1.0441    31
 1.0541    34
 1.0641    37
 1.0741    41
 1.0841    28
 1.0941    34
 1.1041    33
 1.1141    29
 1.1241    33
 1.1341    33
 1.1441    23
 1.1541    23
 1.1641    25
 1.1741    27
 1.1841    27
 1.1941    28
 1.2041    29
 1.2141    34
 1.2241    28
 1.2341    26
 1.2441    25
 1.2541    28
 1.2641    26
 1.2741    34
 1.2841    32
 1.2941    27
 1.3041    25
 1.3141    24
 1.3241    21
 1.3341    19
 1.3441    22
 1.3541    22
 1.3641    20
 1.3741    20
 1.3841    25
 1.3941    18
 1.4041    18
 1.4141    26
 1.4241    23
 1.4341    19
 1.4441    21
 1.4541    23
 1.4641    20
 1.4741    18
 1.4841    24
 1.4941    20
 1.5042    26
 1.5142    26
 1.5242    21
 1.5342    21
 1.5442    20
 1.5542    12
 1.5642    17
 1.5742    13
 1.5842    13
 1.5942    17
 1.6042    21
 1.6142    22
 1.6242    24
 1.6342    10
 1.6442    18
 1.6542    18
 1.6642    20
 1.6742    13
 1.6842    19
 1.6942    11
 1.7042    15
 1.7142     9
 1.7242    15
 1.7342    13
 1.7442    15
 1.7542    10
 1.7642    15
 1.7742    13
 1.7842    22
 1.7942    13
 1.8042    13
 1.8142    12
 1.8242    21
 1.8342    17
 1.8442    16
 1.8542    20
 1.8642    21
 1.8742    18
 1.8842    26
 1.8942    24
 1.9042    21
 1.9142    19
 1.9242    21
 1.9342    17
 1.9442    25
 1.9542    19
 1.9642    16
 1.9742    19
 1.9842    15
 1.9942    21
 2.0042    14
 2.0142    19
 2.0242    12
 2.0342    17
 2.0442    19
 2.0542    19
 2.0642    22
 2.0742     9
 2.0842    16
 2.0942    19
 2.1042    12
 2.1142    15
 2.1242    17
 2.1342    13
 2.1442     8
 2.1542    17
 2.1642    13
 2.1742    10
 2.1842    14
 2.1942    17
 2.2042    19
 2.2142    18
 2.2242    17
 2.2342    14
 2.2442    12
 2.2542    20
 2.2642    19
 2.2742    24
 2.2842    13
 2.2942    12
 2.3042    17
 2.3142    14
 2.3242    18
 2.3342    19
 2.3442    27
 2.3542    22
 2.3642    13
 2.3742    15
 2.3842    15
 2.3942    10
 2.4042    10
 2.4142     9
 2.4242    11
 2.4342    12
 2.4442    21
 2.4542    13
 2.4642    10
 2.4742     8
 2.4842    11
 2.4942    13
 2.5043    16
 2.5143     8
 2.5243    11
 2.5343    12
 2.5443    13
 2.5543    14
 2.5643    19
 2.5743    16
 2.5843    10
 2.5943    14
 2.6043    16
 2.6143    20
 2.6243    28
 2.6343    27
 2.6443    21
 2.6543    25
 2.6643    39
 2.6743    44
 2.6843    34
 2.6943    38
 2.7043    33
 2.7143    34
 2.7243    31
 2.7343    38
 2.7443    30
 2.7543    32
 2.7643    33
 2.7743    43
 2.7843    46
 2.7943    34
 2.8043    30
 2.8143    47
 2.8243    53
 2.8343    59
 2.8443    55
 2.8543    80
 2.8643   111
 2.8743   113
 2.8843   170
 2.8943   186
 2.9043   229
 2.9143   275
 2.9243   317
 2.9343   355
 2.9443   388
 2.9543   400
 2.9643   396
 2.9743   415
 2.9843   362
 2.9943   311
 3.0043   281
 3.0143   241
 3.0243   184
 3.0343   139
 3.0443   130
 3.0543    99
 3.0643    61
 3.0743    47
 3.0843    46
 3.0943    36
 3.1043    35
 3.1143    31
 3.1243    31
 3.1343    45
 3.1443    42
 3.1543    43
 3.1643    53
 3.1743    49
 3.1843    49
 3.1943    57
 3.2043    64
 3.2143    63
 3.2243    71
 3.2343    83
 3.2443    82
 3.2543    71
 3.2643    79
 3.2743    68
 3.2843    75
 3.2943    79
 3.3043    74
 3.3143    78
 3.3243    77
 3.3343    85
 3.3443    72
 3.3543    75
 3.3643    54
 3.3743    46
 3.3843    43
 3.3943    36
 3.4043    28
 3.4143    23
 3.4243    34
 3.4343    31
 3.4443    30
 3.4543    32
 3.4643    26
 3.4743    28
 3.4843    35
 3.4943    36
 3.5044    49
 3.5144    63
 3.5244    87
 3.5344   133
 3.5444   194
 3.5544   304
 3.5644   449
 3.5744   687
 3.5844   994
 3.5944  1446
 3.6044  2066
 3.6144  2794
 3.6244  3596
 3.6344  4502
 3.6444  5689
 3.6544  6711
 3.6644  7802
 3.6744  8602
 3.6844  9131
 3.6944  9401
 3.7044  9138
 3.7144  8804
 3.7244  8102
 3.7344  7213
 3.7444  6104
 3.7544  5097
 3.7644  4132
 3.7744  3148
 3.7844  2373
 3.7944  1640
 3.8044  1133
 3.8144   778
 3.8244   516
 3.8344   328
 3.8444   222
 3.8544   149
 3.8644   139
 3.8744   143
 3.8844   162
 3.8944   177
 3.9044   193
 3.9144   294
 3.9244   374
 3.9344   489
 3.9444   566
 3.9544   728
 3.9644   865
 3.9744  1044
 3.9844  1218
 3.9944  1303
 4.0044  1350
 4.0144  1405
 4.0244  1393
 4.0344  1383
 4.0444  1242
 4.0544  1078
 4.0644  1009
 4.0744   854
 4.0844   682
 4.0944   512
 4.1044   418
 4.1144   337
 4.1244   237
 4.1344   169
 4.1444   120
 4.1544    76
 4.1644    56
 4.1744    39
 4.1844    27
 4.1944    21
 4.2044    14
 4.2144    17
 4.2244    20
 4.2344    27
 4.2444    20
 4.2544    23
 4.2644    21
 4.2744    19
 4.2844    23
 4.2944    39
 4.3044    36
 4.3144    45
 4.3244    52
 4.3344    96
 4.3444   130
 4.3544   184
 4.3644   249
 4.3744   381
 4.3844   564
 4.3944   798
 4.4044  1108
 4.4144  1563
 4.4244  2039
 4.4344  2738
 4.4444  3573
 4.4544  4319
 4.4644  5227
 4.4744  5964
 4.4844  6777
 4.4944  7303
 4.5045  7618
 4.5145  7710
 4.5245  7524
 4.5345  7254
 4.5445  6775
 4.5545  6033
 4.5645  5134
 4.5745  4265
 4.5845  3510
 4.5945  2775
 4.6045  2138
 4.6145  1555
 4.6245  1188
 4.6345   815
 4.6445   512
 4.6545   359
 4.6645   223
 4.6745   148
 4.6845   114
 4.6945    76
 4.7045    62
 4.7145    60
 4.7245    58
 4.7345    52
 4.7445    47
 4.7545    55
 4.7645    61
 4.7745    69
 4.7845   106
 4.7945   118
 4.8045   146
 4.8145   196
 4.8245   234
 4.8345   289
 4.8445   382
 4.8545   474
 4.8645   552
 4.8745   647
 4.8845   800
 4.8945   920
 4.9045  1020
 4.9145  1093
 4.9245  1151
 4.9345  1166
 4.9445  1144
 4.9545  1162
 4.9645  1069
 4.9745   945
 4.9845   848
 4.9945   699
 5.0045   603
 5.0145   526
 5.0245   421
 5.0345   313
 5.0445   237
 5.0545   170
 5.0645   120
 5.0745   101
 5.0845    72
 5.0945    48
 5.1045    45
 5.1145    36
 5.1245    27
 5.1345    29
 5.1445    26
 5.1545    23
 5.1645    19
 5.1745    21
 5.1845    20
 5.1945    20
 5.2045    26
 5.2145    24
 5.2245    21
 5.2345    28
 5.2445    22
 5.2545    17
 5.2645    19
 5.2745    24
 5.2845    22
 5.2945    18
 5.3045    19
 5.3145    19
 5.3245    23
 5.3345    21
 5.3445    16
 5.3545    19
 5.3645    18
 5.3745    20
 5.3845    29
 5.3945    32
 5.4045    20
 5.4145    25
 5.4245    30
 5.4345    27
 5.4445    25
 5.4545    34
 5.4645    32
 5.4745    35
 5.4845    34
 5.4945    36
 5.5046    36
 5.5146    28
 5.5246    31
 5.5346    28
 5.5446    31
 5.5546    31
 5.5646    32
 5.5746    28
 5.5846    34
 5.5946    30
 5.6046    35
 5.6146    36
 5.6246    40
 5.6346    38
 5.6446    37
 5.6546    28
 5.6646    40
 5.6746    44
 5.6846    41
 5.6946    35
 5.7046    37
 5.7146    35
 5.7246    42
 5.7346    36
 5.7446    35
 5.7546    35
 5.7646    41
 5.7746    41
 5.7846    51
 5.7946    42
 5.8046    49
 5.8146    52
 5.8246    45
 5.8346    54
 5.8446    62
 5.8546    55
 5.8646    66
 5.8746    68
 5.8846    72
 5.8946    73
 5.9046    58
 5.9146    64
 5.9246    57
 5.9346    58
 5.9446    69
 5.9546    66
 5.9646    65
 5.9746    53
 5.9846    47
 5.9946    57
 6.0046    53
 6.0146    62
 6.0246    48
 6.0346    47
 6.0446    59
 6.0546    51
 6.0646    57
 6.0746    48
 6.0846    53
 6.0946    59
 6.1046    69
 6.1146    51
 6.1246    51
 6.1346    48
 6.1446    66
 6.1546    62
 6.1646    80
 6.1746    64
 6.1846    69
 6.1946    58
 6.2046    71
 6.2146    67
 6.2246    77
 6.2346    89
 6.2446    86
 6.2546    86
 6.2646    97
 6.2746   109
 6.2846   117
 6.2946   150
 6.3046   165
 6.3146   194
 6.3246   241
 6.3346   283
 6.3446   313
 6.3546   349
 6.3646   391
 6.3746   436
 6.3846   449
 6.3946   472
 6.4046   470
 6.4146   460
 6.4246   477
 6.4346   445
 6.4446   442
 6.4546   383
 6.4646   335
 6.4746   285
 6.4846   240
 6.4946   218
 6.5047   195
 6.5147   176
 6.5247   151
 6.5347   128
 6.5447   121
 6.5547    91
 6.5647    85
 6.5747    84
 6.5847    82
 6.5947    69
 6.6047    83
 6.6147    90
 6.6247    88
 6.6347    78
 6.6447    69
 6.6547    73
 6.6647    86
 6.6747    85
 6.6847    94
 6.6947    83
 6.7047    77
 6.7147    75
 6.7247    77
 6.7347    73
 6.7447    86
 6.7547    98
 6.7647   100
 6.7747    88
 6.7847    93
 6.7947    80
 6.8047    85
 6.8147    82
 6.8247    79
 6.8347    88
 6.8447    95
 6.8547    95
 6.8647    99
 6.8747    95
 6.8847    92
 6.8947   106
 6.9047    99
 6.9147   104
 6.9247    88
 6.9347    92
 6.9447   107
 6.9547   105
 6.9647   104
 6.9747   129
 6.9847   134
 6.9947   153
 7.0047   144
 7.0147   127
 7.0247   144
 7.0347   166
 7.0447   169
 7.0547   154
 7.0647   157
 7.0747   154
 7.0847   162
 7.0947   157
 7.1047   156
 7.1147   158
 7.1247   139
 7.1347   130
 7.1447   139
 7.1547   141
 7.1647   138
 7.1747   124
 7.1847   121
 7.1947   121
 7.2047   118
 7.2147   134
 7.2247   125
 7.2347   115
 7.2447   119
 7.2547   139
 7.2647   137
 7.2747   136
 7.2847   143
 7.2947   136
 7.3047   139
 7.3147   125
 7.3247   116
 7.3347   123
 7.3447   116
 7.3547   128
 7.3647   139
 7.3747   113
 7.3847   129
 7.3947   117
 7.4047   119
 7.4147   128
 7.4247   140
 7.4347   134
 7.4447   133
 7.4547   141
 7.4647   137
 7.4747   146
 7.4847   153
 7.4947   150
 7.5048   161
 7.5148   144
 7.5248   152
 7.5348   153
 7.5448   148
 7.5548   141
 7.5648   147
 7.5748   158
 7.5848   164
 7.5948   160
 7.6048   160
 7.6148   163
 7.6248   150
 7.6348   157
 7.6448   152
 7.6548   150
 7.6648   156
 7.6748   167
 7.6848   177
 7.6948   172
 7.7048   166
 7.7148   169
 7.7248   172
 7.7348   175
 7.7448   182
 7.7548   178
 7.7648   181
 7.7748   191
 7.7848   190
 7.7948   191
 7.8048   194
 7.8148   178
 7.8248   193
 7.8348   204
 7.8448   190
 7.8548   181
 7.8648   180
 7.8748   178
 7.8848   184
 7.8948   197
 7.9048   199
 7.9148   189
 7.9248   212
 7.9348   229
 7.9448   217
 7.9548   207
 7.9648   204
 7.9748   206
 7.9848   192
 7.9948   194
 8.0048   200
 8.0148   201
 8.0248   203
 8.0348   215
 8.0448   218
 8.0548   213
 8.0648   215
 8.0748   211
 8.0848   226
 8.0948   244
 8.1048   226
 8.1148   215
 8.1248   210
 8.1348   224
 8.1448   244
 8.1548   253
 8.1648   230
 8.1748   215
 8.1848   212
 8.1948   215
 8.2048   226
 8.2148   237
 8.2248   241
 8.2348   240
 8.2448   237
 8.2548   236
 8.2648   243
 8.2748   250
 8.2848   250
 8.2948   250
 8.3048   254
 8.3148   257
 8.3248   258
 8.3348   264
 8.3448   272
 8.3548   273
 8.3648   270
 8.3748   267
 8.3848   259
 8.3948   247
 8.4048   264
 8.4148   277
 8.4248   271
 8.4348   283
 8.4448   295
 8.4548   299
 8.4648   277
 8.4748   268
 8.4848   290
 8.4948   288
 8.5049   279
 8.5149   288
 8.5249   282
 8.5349   275
 8.5449   289
 8.5549   291
 8.5649   301
 8.5749   302
 8.5849   288
 8.5949   317
 8.6049   313
 8.6149   296
 8.6249   313
 8.6349   311
 8.6449   309
 8.6549   302
 8.6649   301
 8.6749   298
 8.6849   300
 8.6949   310
 8.7049   286
 8.7149   285
 8.7249   291
 8.7349   302
 8.7449   310
 8.7549   310
 8.7649   307
 8.7749   321
 8.7849   326
 8.7949   308
 8.8049   315
 8.8149   327
 8.8249   332
 8.8349   323
 8.8449   333
 8.8549   338
 8.8649   322
 8.8749   320
 8.8849   327
 8.8949   344
 8.9049   352
 8.9149   354
 8.9249   352
 8.9349   348
 8.9449   340
 8.9549   328
 8.9649   328
 8.9749   333
 8.9849   352
 8.9949   371
 9.0049   359
 9.0149   339
 9.0249   346
 9.0349   356
 9.0449   377
 9.0549   364
 9.0649   340
 9.0749   367
 9.0849   390
 9.0949   388
 9.1049   373
 9.1149   360
 9.1249   346
 9.1349   382
 9.1449   396
 9.1549   401
 9.1649   403
 9.1749   375
 9.1849   374
 9.1949   368
 9.2049   370
 9.2149   401
 9.2249   398
 9.2349   369
 9.2449   394
 9.2549   403
 9.2649   400
 9.2749   390
 9.2849   387
 9.2949   390
 9.3049   402
 9.3149   421
 9.3249   393
 9.3349   364
 9.3449   386
 9.3549   419
 9.3649   395
 9.3749   384
 9.3849   415
 9.3949   408
 9.4049   406
 9.4149   408
 9.4249   432
 9.4349   451
 9.4449   413
 9.4549   408
 9.4649   414
 9.4749   400
 9.4849   417
 9.4949   426
  9.505   421
  9.515   415
  9.525   446
  9.535   446
  9.545   455
  9.555   429
  9.565   414
  9.575   459
  9.585   445
  9.595   428
  9.605   454
  9.615   439
  9.625   430
  9.635   456
  9.645   474
  9.655   470
  9.665   477
  9.675   457
  9.685   450
  9.695   457
  9.705   455
  9.715   468
  9.725   477
  9.735   450
  9.745   432
  9.755   441
  9.765   461
  9.775   464
  9.785   446
  9.795   443
  9.805   451
  9.815   453
  9.825   477
  9.835   478
  9.845   451
  9.855   478
  9.865   492
  9.875   504
  9.885   491
  9.895   479
  9.905   491
  9.915   502
  9.925   489
  9.935   479
  9.945   490
  9.955   484
  9.965   493
  9.975   503
  9.985   505
  9.995   516
 10.005   516
 10.015   512
 10.025   514
 10.035   496
 10.045   491
 10.055   510
 10.065   492
 10.075   477
 10.085   463
 10.095   484
 10.105   532
 10.115   534
 10.125   495
 10.135   494
 10.145   522
 10.155   526
 10.165   499
 10.175   486
 10.185   496
 10.195   542
 10.205   522
 10.215   508
 10.225   512
 10.235   500
 10.245   534
 10.255   528
 10.265   502
 10.275   510
 10.285   551
 10.295   533
 10.305   544
 10.315   542
 10.325   532
 10.335   538
 10.345   554
 10.355   557
 10.365   503
 10.375   516
 10.385   520
 10.395   531
 10.405   528
 10.415   520
 10.425   554
 10.435   519
 10.445   555
 10.455   521
 10.465   548
 10.475   554
 10.485   553
 10.495   560
10.5051   522
10.5151   570
10.5251   609
10.5351   577
10.5451   558
10.5551   567
10.5651   574
10.5751   551
10.5851   532
10.5951   542
10.6051   535
10.6151   513
10.6251   556
10.6351   547
10.6451   563
10.6551   545
10.6651   566
10.6751   592
10.6851   590
10.6951   602
10.7051   593
10.7151   571
10.7251   593
10.7351   590
10.7451   576
10.7551   633
10.7651   601
10.7751   555
10.7851   575
10.7951   592
10.8051   596
10.8151   598
10.8251   606
10.8351   572
10.8451   585
10.8551   633
10.8651   604
10.8751   585
10.8851   583
10.8951   605
10.9051   594
10.9151   625
10.9251   632
10.9351   597
10.9451   569
10.9551   599
10.9651   625
10.9751   583
10.9851   621
10.9951   611
11.0051   578
11.0151   609
11.0251   623
11.0351   606
11.0451   582
11.0551   596
11.0651   642
11.0751   584
11.0851   602
11.0951   596
11.1051   600
11.1151   608
11.1251   607
11.1351   604
11.1451   609
11.1551   597
11.1651   625
11.1751   639
11.1851   644
11.1951   622
11.2051   594
11.2151   595
11.2251   587
11.2351   596
11.2451   622
11.2551   636
11.2651   637
11.2751   625
11.2851   598
11.2951   632
11.3051   658
11.3151   649
11.3251   633
11.3351   654
11.3451   651
11.3551   624
11.3651   631
11.3751   642
11.3851   639
11.3951   648
11.4051   605
11.4151   645
11.4251   616
11.4351   642
11.4451   643
11.4551   636
11.4651   646
11.4751   656
11.4851   655
11.4951   608
11.5052   650
11.5152   634
11.5252   644
11.5352   632
11.5452   632
11.5552   668
11.5652   666
11.5752   615
11.5852   633
11.5952   658
11.6052   617
11.6152   628
11.6252   633
11.6352   648
11.6452   632
11.6552   653
11.6652   654
11.6752   627
11.6852   632
11.6952   625
11.7052   640
11.7152   644
11.7252   614
11.7352   637
11.7452   625
11.7552   626
11.7652   619
11.7752   621
11.7852   623
11.7952   619
11.8052   667
11.8152   656
11.8252   643
11.8352   660
11.8452   627
11.8552   616
11.8652   612
11.8752   622
11.8852   643
11.8952   651
11.9052   628
11.9152   612
11.9252   596
11.9352   640
11.9452   648
11.9552   654
11.9652   648
11.9752   656
11.9852   636
11.9952   613
12.0052   642
12.0152   653
12.0252   668
12.0352   628
12.0452   644
12.0552   617
12.0652   619
12.0752   600
12.0852   587
12.0952   633
12.1052   615
12.1152   640
12.1252   644
12.1352   646
12.1452   668
12.1552   691
12.1652   611
12.1752   643
12.1852   639
12.1952   628
12.2052   652
12.2152   636
12.2252   626
12.2352   640
12.2452   626
12.2552   597
12.2652   653
12.2752   646
12.2852   631
12.2952   616
12.3052   616
12.3152   652
12.3252   627
12.3352   639
12.3452   635
12.3552   663
12.3652   646
12.3752   673
12.3852   655
12.3952   654
12.4052   681
12.4152   641
12.4252   644
12.4352   614
12.4452   572
12.4552   608
12.4652   652
12.4752   672
12.4852   648
12.4952   666
12.5053   642
12.5153   630
12.5253   618
12.5353   677
12.5453   627
12.5553   660
12.5653   617
12.5753   612
12.5853   664
12.5953   622
12.6053   627
12.6153   606
12.6253   584
12.6353   658
12.6453   664
12.6553   649
12.6653   626
12.6753   601
12.6853   607
12.6953   646
12.7053   651
12.7153   615
12.7253   666
12.7353   686
12.7453   594
12.7553   645
12.7653   612
12.7753   634
12.7853   600
12.7953   610
12.8053   607
12.8153   607
12.8253   575
12.8353   612
12.8453   608
12.8553   631
12.8653   648
12.8753   625
12.8853   623
12.8953   598
12.9053   648
12.9153   596
12.9253   621
12.9353   603
12.9453   666
12.9553   595
12.9653   636
12.9753   639
12.9853   633
12.9953   585
13.0053   594
13.0153   602
13.0253   633
13.0353   650
13.0453   603
13.0553   605
13.0653   599
13.0753   613
13.0853   619
13.0953   626
13.1053   598
13.1153   590
13.1253   597
13.1353   645
13.1453   641
13.1553   585
13.1653   592
13.1753   581
13.1853   578
13.1953   583
13.2053   611
13.2153   601
13.2253   602
13.2353   585
13.2453   612
13.2553   604
13.2653   617
13.2753   599
13.2853   597
13.2953   580
13.3053   634
13.3153   573
13.3253   655
13.3353   603
13.3453   600
13.3553   590
13.3653   583
13.3753   622
13.3853   615
13.3953   583
13.4053   631
13.4153   612
13.4253   592
13.4353   589
13.4453   624
13.4553   562
13.4653   547
13.4753   566
13.4853   635
13.4953   566
13.5054   577
13.5154   588
13.5254   535
13.5354   592
13.5454   601
13.5554   614
13.5654   601
13.5754   555
13.5854   607
13.5954   589
13.6054   563
13.6154   580
13.6254   570
13.6354   581
13.6454   573
13.6554   543
13.6654   586
13.6754   559
13.6854   552
13.6954   603
13.7054   568
13.7154   583
13.7254   548
13.7354   533
13.7454   564
13.7554   596
13.7654   584
13.7754   560
13.7854   587
13.7954   558
13.8054   518
13.8154   545
13.8254   551
13.8354   581
13.8454   550
13.8554   568
13.8654   567
13.8754   515
13.8854   512
13.8954   558
13.9054   563
13.9154   565
13.9254   565
13.9354   566
13.9454   548
13.9554   545
13.9654   562
13.9754   526
13.9854   550
13.9954   561
14.0054   547
14.0154   532
14.0254   518
14.0354   557
14.0454   597
14.0554   547
14.0654   567
14.0754   556
14.0854   591
14.0954   545
14.1054   592
14.1154   612
14.1254   508
14.1354   529
14.1454   579
14.1554   532
14.1654   574
14.1754   618
14.1854   578
14.1954   558
14.2054   600
14.2154   537
14.2254   542
14.2354   544
14.2454   528
14.2554   570
14.2654   545
14.2754   534
14.2854   518
14.2954   543
14.3054   527
14.3154   506
14.3254   501
14.3354   498
14.3454   541
14.3554   522
14.3654   486
14.3754   481
14.3854   533
14.3954   529
14.4054   545
14.4154   522
14.4254   514
14.4354   530
14.4454   524
14.4554   478
14.4654   504
14.4754   506
14.4854   502
14.4954   485
14.5055   481
14.5155   486
14.5255   481
14.5355   491
14.5455   496
14.5555   517
14.5655   484
14.5755   489
14.5855   474
14.5955   508
14.6055   507
14.6155   510
14.6255   489
14.6355   456
14.6455   501
14.6555   528
14.6655   464
14.6755   477
14.6855   486
14.6955   492
14.7055   468
14.7155   465
14.7255   473
14.7355   514
14.7455   478
14.7555   471
14.7655   459
14.7755   429
14.7855   469
14.7955   475
14.8055   468
14.8155   437
14.8255   452
14.8355   449
14.8455   464
14.8555   427
14.8655   458
14.8755   486
14.8855   464
14.8955   423
14.9055   458
14.9155   439
14.9255   433
14.9355   468
14.9455   470
14.9555   469
14.9655   438
14.9755   447
14.9855   485
14.9955   482
15.0055   453
15.0155   459
15.0255   459
15.0355   432
15.0455   426
15.0555   436
15.0655   436
15.0755   426
15.0855   405
15.0955   436
15.1055   452
15.1155   452
15.1255   442
15.1355   434
15.1455   430
15.1555   427
15.1655   433
15.1755   428
15.1855   410
15.1955   451
15.2055   428
15.2155   433
15.2255   427
15.2355   457
15.2455   436
15.2555   423
15.2655   440
15.2755   403
15.2855   385
15.2955   391
15.3055   405
15.3155   443
15.3255   417
15.3355   423
15.3455   431
15.3555   406
15.3655   399
15.3755   405
15.3855   417
15.3955   445
15.4055   380
15.4155   371
15.4255   424
15.4355   388
15.4455   407
15.4555   405
15.4655   416
15.4755   394
15.4855   405
15.4955   406
15.5056   407
15.5156   429
15.5256   397
15.5356   400
15.5456   388
15.5556   381
15.5656   407
15.5756   391
15.5856   386
15.5956   381
15.6056   412
15.6156   436
15.6256   424
15.6356   411
15.6456   394
15.6556   418
15.6656   408
15.6756   424
15.6856   395
15.6956   405
15.7056   389
15.7156   389
15.7256   405
15.7356   415
15.7456   421
15.7556   395
15.7656   377
15.7756   383
15.7856   386
15.7956   401
15.8056   396
15.8156   372
15.8256   375
15.8356   398
15.8456   380
15.8556   381
15.8656   391
15.8756   370
15.8856   359
15.8956   375
15.9056   388
15.9156   397
15.9256   383
15.9356   359
15.9456   387
15.9556   377
15.9656   348
15.9756   355
15.9856   368
15.9956   356
16.0056   361
16.0156   392
16.0256   359
16.0356   360
16.0456   361
16.0556   359
16.0656   340
16.0756   367
16.0856   366
16.0956   344
16.1056   351
16.1156   351
16.1256   347
16.1356   354
16.1456   342
16.1556   345
16.1656   376
16.1756   347
16.1856   330
16.1956   345
16.2056   352
16.2156   338
16.2256   329
16.2356   331
16.2456   334
16.2556   315
16.2656   327
16.2756   342
16.2856   338
16.2956   314
16.3056   346
16.3156   345
16.3256   309
16.3356   307
16.3456   320
16.3556   326
16.3656   318
16.3756   321
16.3856   349
16.3956   344
16.4056   339
16.4156   330
16.4256   341
16.4356   338
16.4456   315
16.4556   295
16.4656   301
16.4756   323
16.4856   354
16.4956   326
16.5057   331
16.5157   311
16.5257   316
16.5357   326
16.5457   328
16.5557   336
16.5657   314
16.5757   318
16.5857   323
16.5957   330
16.6057   333
16.6157   317
16.6257   332
16.6357   336
16.6457   296
16.6557   320
16.6657   332
16.6757   329
16.6857   304
16.6957   312
16.7057   331
16.7157   311
16.7257   304
16.7357   296
16.7457   307
16.7557   311
16.7657   276
16.7757   297
16.7857   298
16.7957   296
16.8057   302
16.8157   318
16.8257   303
16.8357   302
16.8457   285
16.8557   281
16.8657   317
16.8757   307
16.8857   308
16.8957   300
16.9057   294
16.9157   306
16.9257   295
16.9357   296
16.9457   305
16.9557   289
16.9657   287
16.9757   287
16.9857   291
16.9957   310
17.0057   306
17.0157   301
17.0257   271
17.0357   287
17.0457   300
17.0557   285
17.0657   286
17.0757   295
17.0857   288
17.0957   312
17.1057   306
17.1157   284
17.1257   300
17.1357   310
17.1457   293
17.1557   284
17.1657   281
17.1757   289
17.1857   280
17.1957   287
17.2057   294
17.2157   272
17.2257   265
17.2357   275
17.2457   293
17.2557   310
17.2657   307
17.2757   296
17.2857   285
17.2957   286
17.3057   295
17.3157   285
17.3257   281
17.3357   280
17.3457   302
17.3557   311
17.3657   295
17.3757   276
17.3857   283
17.3957   280
17.4057   271
17.4157   288
17.4257   295
17.4357   278
17.4457   270
17.4557   269
17.4657   284
17.4757   312
17.4857   312
17.4957   298
17.5058   305
17.5158   287
17.5258   280
17.5358   299
17.5458   306
17.5558   278
17.5658   286
17.5758   313
17.5858   285
17.5958   282
17.6058   287
17.6158   300
17.6258   291
17.6358   277
17.6458   270
17.6558   266
17.6658   273
17.6758   282
17.6858   293
17.6958   306
17.7058   317
17.7158   297
17.7258   302
17.7358   269
17.7458   284
17.7558   314
17.7658   296
17.7758   290
17.7858   301
17.7958   294
17.8058   294
17.8158   290
17.8258   277
17.8358   305
17.8458   309
17.8558   279
17.8658   280
17.8758   297
17.8858   321
17.8958   320
17.9058   315
17.9158   300
17.9258   304
17.9358   313
17.9458   305
17.9558   321
17.9658   335
17.9758   330
17.9858   321
17.9958   324
18.0058   320
18.0158   330
18.0258   326
18.0358   320
18.0458   323
18.0558   315
18.0658   335
18.0758   343
18.0858   339
18.0958   340
18.1058   342
18.1158   350
18.1258   343
18.1358   348
18.1458   356
18.1558   375
18.1658   386
18.1758   371
18.1858   364
18.1958   369
18.2058   376
18.2158   393
18.2258   404
18.2358   415
18.2458   436
18.2558   442
18.2658   440
18.2758   438
18.2858   461
18.2958   485
18.3058   477
18.3158   488
18.3258   497
18.3358   493
18.3458   500
18.3558   516
18.3658   528
18.3758   560
18.3858   607
18.3958   623
18.4058   632
18.4158   655
18.4258   679
18.4358   679
18.4458   710
18.4558   740
18.4658   759
18.4758   816
18.4858   849
18.4958   856
18.5059   877
18.5159   925
18.5259   957
18.5359   980
18.5459   989
18.5559  1057
18.5659  1119
18.5759  1117
18.5859  1143
18.5959  1174
18.6059  1227
18.6159  1266
18.6259  1257
18.6359  1269
18.6459  1326
18.6559  1362
18.6659  1389
18.6759  1392
18.6859  1408
18.6959  1499
18.7059  1502
18.7159  1437
18.7259  1452
18.7359  1461
18.7459  1483
18.7559  1534
18.7659  1521
18.7759  1506
18.7859  1510
18.7959  1519
18.8059  1504
18.8159  1497
18.8259  1491
18.8359  1476
18.8459  1523
18.8559  1529
18.8659  1471
18.8759  1488
18.8859  1500
18.8959  1416
18.9059  1384
18.9159  1393
18.9259  1328
18.9359  1333
18.9459  1305
18.9559  1245
18.9659  1231
18.9759  1207
18.9859  1165
18.9959  1138
19.0059  1123
19.0159  1088
19.0259  1060
19.0359  1030
19.0459  1003
19.0559   931
19.0659   902
19.0759   891
19.0859   873
19.0959   818
19.1059   779
19.1159   783
19.1259   780
19.1359   741
19.1459   681
19.1559   658
19.1659   657
19.1759   651
19.1859   635
19.1959   607
19.2059   569
19.2159   532
19.2259   510
19.2359   486
19.2459   479
19.2559   480
19.2659   480
19.2759   467
19.2859   415
19.2959   405
19.3059   434
19.3159   407
19.3259   379
19.3359   360
19.3459   374
19.3559   369
19.3659   330
19.3759   322
19.3859   322
19.3959   328
19.4059   343
19.4159   328
19.4259   321
19.4359   307
19.4459   277
19.4559   274
19.4659   278
19.4759   267
19.4859   274
19.4959   273
 19.506   266
 19.516   256
 19.526   252
 19.536   255
 19.546   249
 19.556   237
 19.566   243
 19.576   255
 19.586   243
 19.596   229
 19.606   226
 19.616   230
 19.626   221
 19.636   213
 19.646   215
 19.656   220
 19.666   225
 19.676   206
 19.686   224
 19.696   220
 19.706   194
 19.716   192
 19.726   190
 19.736   193
 19.746   192
 19.756   174
 19.766   170
 19.776   171
 19.786   180
 19.796   183
 19.806   174
 19.816   163
 19.826   178
 19.836   175
 19.846   169
 19.856   169
 19.866   182
 19.876   178
 19.886   173
 19.896   174
 19.906   178
 19.916   167
 19.926   166
 19.936   172
 19.946   195
 19.956   216
 19.966   199
 19.976   192
 19.986   202
 19.996   235
 20.006   238
 20.016   230
 20.026   263
 20.036   274
 20.046   246
 20.056   244
 20.066   267
 20.076   282
 20.086   301
 20.096   298
 20.106   313
 20.116   327
 20.126   331
 20.136   325
 20.146   335
 20.156   345
 20.166   357
 20.176   356
 20.186   366
 20.196   381
 20.206   372
 20.216   367
 20.226   372
 20.236   344
 20.246   332
 20.256   348
 20.266   341
 20.276   329
 20.286   314
 20.296   290
 20.306   280
 20.316   282
 20.326   278
 20.336   252
 20.346   233
 20.356   232
 20.366   211
 20.376   188
 20.386   182
 20.396   172
 20.406   163
 20.416   185
 20.426   171
 20.436   156
 20.446   154
 20.456   138
 20.466   155
 20.476   149
 20.486   135
 20.496   136
20.5061   134
20.5161   130
20.5261   125
20.5361   124
20.5461   124
20.5561   144
20.5661   145
20.5761   143
20.5861   141
20.5961   132
20.6061   141
20.6161   126
20.6261   144
20.6361   161
20.6461   162
20.6561   152
20.6661   161
20.6761   167
20.6861   176
20.6961   165
20.7061   172
20.7161   188
20.7261   170
20.7361   165
20.7461   177
20.7561   172
20.7661   184
20.7761   199
20.7861   198
20.7961   195
20.8061   200
20.8161   197
20.8261   207
20.8361   200
20.8461   202
20.8561   237
20.8661   208
20.8761   203
20.8861   230
20.8961   223
20.9061   220
20.9161   226
20.9261   224
20.9361   199
20.9461   218
20.9561   216
20.9661   219
20.9761   219
20.9861   229
20.9961   237
21.0061   228
21.0161   237
21.0261   232
21.0361   226
21.0461   217
21.0561   213
21.0661   244
21.0761   227
21.0861   212
21.0961   204
21.1061   208
21.1161   210
21.1261   218
21.1361   213
21.1461   215
21.1561   218
21.1661   204
21.1761   201
21.1861   190
21.1961   165
21.2061   182
21.2161   184
21.2261   182
21.2361   179
21.2461   159
21.2561   161
21.2661   159
21.2761   154
21.2861   152
21.2961   154
21.3061   146
21.3161   148
21.3261   143
21.3361   146
21.3461   146
21.3561   135
21.3661   137
21.3761   123
21.3861   107
21.3961   121
21.4061   123
21.4161   111
21.4261   120
21.4361   113
21.4461   108
21.4561   107
21.4661   114
21.4761   120
21.4861   112
21.4961   110
21.5062   106
21.5162   101
21.5262    96
21.5362   108
21.5462   101
21.5562    91
21.5662    83
21.5762    84
21.5862    84
21.5962    77
21.6062    80
21.6162    74
21.6262    74
21.6362    76
21.6462    76
21.6562    62
21.6662    83
21.6762    66
21.6862    71
21.6962    71
21.7062    70
21.7162    66
21.7262    71
21.7362    75
21.7462    67
21.7562    66
21.7662    74
21.7762    62
21.7862    60
21.7962    75
21.8062    58
21.8162    63
21.8262    70
21.8362    65
21.8462    57
21.8562    55
21.8662    55
21.8762    58
21.8862    57
21.8962    51
21.9062    54
21.9162    54
21.9262    57
21.9362    44
21.9462    42
21.9562    46
21.9662    44
21.9762    59
21.9862    51
21.9962    54
22.0062    48
22.0162    45
22.0262    52
22.0362    41
22.0462    44
22.0562    58
22.0662    53
22.0762    53
22.0862    48
22.0962    44
22.1062    44
22.1162    43
22.1262    52
22.1362    46
22.1462    45
22.1562    41
22.1662    35
22.1762    42
22.1862    42
22.1962    38
22.2062    46
22.2162    48
22.2262    46
22.2362    36
22.2462    43
22.2562    40
22.2662    41
22.2762    43
22.2862    30
22.2962    44
22.3062    43
22.3162    39
22.3262    32
22.3362    49
22.3462    41
22.3562    38
22.3662    44
22.3762    41
22.3862    31
22.3962    41
22.4062    36
22.4162    37
22.4262    45
22.4362    33
22.4462    30
22.4562    38
22.4662    45
22.4762    37
22.4862    39
22.4962    48
22.5063    36
22.5163    41
22.5263    36
22.5363    38
22.5463    39
22.5563    44
22.5663    38
22.5763    50
22.5863    49
22.5963    47
22.6063    46
22.6163    51
22.6263    50
22.6363    39
22.6463    43
22.6563    49
22.6663    43
22.6763    46
22.6863    55
22.6963    52
22.7063    56
22.7163    43
22.7263    39
22.7363    52
22.7463    58
22.7563    51
22.7663    60
22.7763    53
22.7863    47
22.7963    46
22.8063    45
22.8163    44
22.8263    42
22.8363    47
22.8463    39
22.8563    44
22.8663    39
22.8763    40
22.8863    37
22.8963    32
22.9063    44
22.9163    40
22.9263    38
22.9363    34
22.9463    28
22.9563    29
22.9663    31
22.9763    32
22.9863    35
22.9963    24
23.0063    29
23.0163    29
23.0263    35
23.0363    26
23.0463    32
23.0563    25
23.0663    30
23.0763    36
23.0863    32
23.0963    35
23.1063    22
23.1163    28
23.1263    22
23.1363    31
23.1463    23
23.1563    29
23.1663    29
23.1763    35
23.1863    14
23.1963    42
23.2063    27
23.2163    25
23.2263    24
23.2363    28
23.2463    28
23.2563    35
23.2663    27
23.2763    26
23.2863    26
23.2963    33
23.3063    25
23.3163    22
23.3263    25
23.3363    34
23.3463    24
23.3563    25
23.3663    26
23.3763    24
23.3863    26
23.3963    24
23.4063    26
23.4163    23
23.4263    24
23.4363    18
23.4463    28
23.4563    16
23.4663    24
23.4763    25
23.4863    28
23.4963    29
23.5064    30
23.5164    22
23.5264    27
23.5364    26
23.5464    21
23.5564    24
23.5664    19
23.5764    20
23.5864    22
23.5964    18
23.6064    21
23.6164    26
23.6264    26
23.6364    21
23.6464    18
23.6564    20
23.6664    17
23.6764    20
23.6864    21
23.6964    15
23.7064    23
23.7164    16
23.7264    20
23.7364    25
23.7464    25
23.7564    20
23.7664    14
23.7764    26
23.7864    32
23.7964    14
23.8064    20
23.8164    20
23.8264    15
23.8364    13
23.8464    26
23.8564    20
23.8664    25
23.8764    14
23.8864    21
23.8964    21
23.9064    24
23.9164    21
23.9264    15
23.9364    16
23.9464    21
23.9564    17
23.9664    18
23.9764    19
23.9864    21
23.9964    21
24.0064    23
24.0164    18
24.0264    20
24.0364    20
24.0464    23
24.0564    18
24.0664    24
24.0764    17
24.0864    30
24.0964    25
24.1064    18
24.1164    20
24.1264    19
24.1364    23
24.1464    12
24.1564    26
24.1664    13
24.1764    18
24.1864    24
24.1964    24
24.2064    20
24.2164    16
24.2264    21
24.2364    20
24.2464    20
24.2564    19
24.2664    14
24.2764    20
24.2864    19
24.2964    17
24.3064    15
24.3164    16
24.3264    23
24.3364    24
24.3464    22
24.3564    16
24.3664    16
24.3764    13
24.3864    18
24.3964    16
24.4064    21
24.4164    21
24.4264     8
24.4364    21
24.4464    20
24.4564    18
24.4664    18
24.4764    22
24.4864    15
24.4964    16
24.5065    11
24.5165    17
24.5265    18
24.5365    17
24.5465    20
24.5565    13
24.5665    15
24.5765    17
24.5865    15
24.5965    10
24.6065    12
24.6165    20
24.6265    14
24.6365    17
24.6465    14
24.6565    15
24.6665    10
24.6765    14
24.6865    17
24.6965    16
24.7065    17
24.7165    15
24.7265    10
24.7365    11
24.7465    15
24.7565    18
24.7665    13
24.7765    16
24.7865    13
24.7965    15
24.8065    21
24.8165    14
24.8265    13
24.8365    16
24.8465    25
24.8565    15
24.8665    16
24.8765    14
24.8865    11
24.8965    12
24.9065    20
24.9165    17
24.9265    16
24.9365    13
24.9465    13
24.9565    15
24.9665    11
24.9765    12
24.9865     8
24.9965    16
25.0065    19
25.0165    23
25.0265    17
25.0365    10
25.0465    16
25.0565    17
25.0665    15
25.0765    17
25.0865    11
25.0965    13
25.1065    16
25.1165    13
25.1265    15
25.1365    24
25.1465    17
25.1565    18
25.1665     9
25.1765    12
25.1865     6
25.1965    10
25.2065    18
25.2165    10
25.2265    17
25.2365    19
25.2465    14
25.2565    14
25.2665    13
25.2765     8
25.2865    17
25.2965    12
25.3065    15
25.3165    16
25.3265    13
25.3365    12
25.3465    11
25.3565    18
25.3665    17
25.3765    17
25.3865    13
25.3965    12
25.4065     9
25.4165    18
25.4265    15
25.4365    14
25.4465     8
25.4565     8
25.4665    14
25.4765    16
25.4865    11
25.4965    12
25.5066    11
25.5166    19
25.5266    19
25.5366     9
25.5466    12
25.5566    11
25.5666    10
25.5766    14
25.5866    13
25.5966    13
25.6066    14
25.6166    15
25.6266    13
25.6366    13
25.6466     9
25.6566     9
25.6666    10
25.6766    10
25.6866    13
25.6966    10
25.7066    12
25.7166     8
25.7266    13
25.7366    12
25.7466     9
25.7566    10
25.7666     5
25.7766     9
25.7866    16
25.7966    12
25.8066    13
25.8166     8
25.8266    11
25.8366    13
25.8466    11
25.8566    10
25.8666     9
25.8766     5
25.8866    13
25.8966    12
25.9066    11
25.9166     9
25.9266     8
25.9366     5
25.9466    13
25.9566    10
25.9666    14
25.9766    10
25.9866    15
25.9966     9
26.0066     8
26.0166     9
26.0266    12
26.0366    11
26.0466    14
26.0566    12
26.0666    12
26.0766     7
26.0866    12
26.0966    10
26.1066     7
26.1166     9
26.1266     9
26.1366    13
26.1466    12
26.1566    10
26.1666    15
26.1766    18
26.1866    10
26.1966     9
26.2066    12
26.2166     8
26.2266     7
26.2366     6
26.2466    10
26.2566    12
26.2666     9
26.2766    13
26.2866     7
26.2966     9
26.3066     9
26.3166     8
26.3266     9
26.3366    11
26.3466     8
26.3566    10
26.3666    11
26.3766     8
26.3866    10
26.3966    10
26.4066    11
26.4166    16
26.4266    14
26.4366    14
26.4466    13
26.4566    13
26.4666     7
26.4766     5
26.4866     9
26.4966     9
26.5067     9
26.5167     7
26.5267    11
26.5367    13
26.5467    11
26.5567    11
26.5667     8
26.5767     5
26.5867     8
26.5967    12
26.6067     8
26.6167    12
26.6267    11
26.6367     5
26.6467     6
26.6567    10
26.6667    13
26.6767     6
26.6867     6
26.6967    10
26.7067     9
26.7167     6
26.7267     7
26.7367    13
26.7467    10
26.7567    10
26.7667     6
26.7767     7
26.7867     6
26.7967    11
26.8067     7
26.8167     7
26.8267     6
26.8367     4
26.8467     7
26.8567     7
26.8667     5
26.8767    11
26.8867    10
26.8967    12
26.9067    13
26.9167     8
26.9267    11
26.9367     9
26.9467    10
26.9567     9
26.9667    10
26.9767    11
26.9867     8
26.9967     6
27.0067    11
27.0167     9
27.0267     8
27.0367    10
27.0467     6
27.0567     6
27.0667     7
27.0767    12
27.0867     9
27.0967     9
27.1067     9
27.1167    10
27.1267     8
27.1367     5
27.1467     9
27.1567     6
27.1667     8
27.1767    11
27.1867    10
27.1967     8
27.2067     7
27.2167    11
27.2267     6
27.2367     4
27.2467     7
27.2567     9
27.2667     9
27.2767     7
27.2867     7
27.2967     7
27.3067     5
27.3167     7
27.3267    10
27.3367     6
27.3467     7
27.3567     7
27.3667     5
27.3767     9
27.3867    10
27.3967     7
27.4067     7
27.4167     6
27.4267     9
27.4367     9
27.4467     7
27.4567     8
27.4667     7
27.4767     8
27.4867     7
27.4967     4
27.5068     6
27.5168     5
27.5268     6
27.5368     6
27.5468     9
27.5568     6
27.5668     7
27.5768     6
27.5868     7
27.5968     8
27.6068     6
27.6168     8
27.6268     6
27.6368     6
27.6468     7
27.6568     7
27.6668     3
27.6768     5
27.6868     6
27.6968     6
27.7068     7
27.7168     5
27.7268     5
27.7368     4
27.7468     6
27.7568     8
27.7668    10
27.7768     6
27.7868     3
27.7968     3
27.8068     5
27.8168     5
27.8268     5
27.8368     4
27.8468     5
27.8568     4
27.8668     5
27.8768     6
27.8868     8
27.8968     7
27.9068     4
27.9168     9
27.9268    10
27.9368     6
27.9468     4
27.9568     3
27.9668     7
27.9768     9
27.9868     8
27.9968     4
28.0068     2
28.0168     7
28.0268     4
28.0368     2
28.0468     7
28.0568     7
28.0668     8
28.0768     5
28.0868     6
28.0968     6
28.1068     5
28.1168     5
28.1268     6
28.1368     6
28.1468     4
28.1568     3
28.1668     7
28.1768     9
28.1868     4
28.1968     4
28.2068     4
28.2168     2
28.2268     6
28.2368     5
28.2468     5
28.2568     5
28.2668     5
28.2768     4
28.2868     3
28.2968     3
28.3068     2
28.3168     4
28.3268     3
28.3368     2
28.3468     4
28.3568     9
28.3668    10
28.3768     6
28.3868     6
28.3968     9
28.4068     7
28.4168     4
28.4268     5
28.4368     3
28.4468     2
28.4568     6
28.4668     6
28.4768     2
28.4868     4
28.4968     6
28.5069     7
28.5169     7
28.5269     5
28.5369     4
28.5469     4
28.5569     4
28.5669     2
28.5769     3
28.5869     4
28.5969     2
28.6069     5
28.6169     4
28.6269     1
28.6369     2
28.6469     3
28.6569     4
28.6669     3
28.6769     3
28.6869     5
28.6969     3
28.7069     4
28.7169     3
28.7269     5
28.7369     9
28.7469     7
28.7569     4
28.7669     2
28.7769     2
28.7869     2
28.7969     6
28.8069     5
28.8169     1
28.8269     1
28.8369     2
28.8469     6
28.8569     6
28.8669     3
28.8769     6
28.8869     7
28.8969     4
28.9069     3
28.9169     2
28.9269     2
28.9369     3
28.9469     4
28.9569     5
28.9669     4
28.9769     3
28.9869     5
28.9969     5
29.0069     1
29.0169     6
29.0269     8
29.0369     3
29.0469     3
29.0569     4
29.0669     4
29.0769     4
29.0869     4
29.0969     4
29.1069     4
29.1169     4
29.1269     6
29.1369     5
29.1469     3
29.1569     4
29.1669     3
29.1769     3
29.1869     4
29.1969     3
29.2069     4
29.2169     3
29.2269     4
29.2369     6
29.2469     5
29.2569     5
29.2669     6
29.2769     6
29.2869     4
29.2969     2
29.3069     4
29.3169     4
29.3269     4
29.3369     3
29.3469     2
29.3569     4
29.3669     4
29.3769     3
29.3869     3
29.3969     2
29.4069     3
29.4169     2
29.4269     4
29.4369     5
29.4469     3
29.4569     2
29.4669     2
29.4769     4
29.4869     6
29.4969     3
 29.507     2
 29.517     3
 29.527     2
 29.537     3
 29.547     3
 29.557     3
 29.567     4
 29.577     2
 29.587     2
 29.597     4
 29.607     4
 29.617     3
 29.627     6
 29.637     3
 29.647     1
 29.657     4
 29.667     4
 29.677     2
 29.687     2
 29.697     5
 29.707     4
 29.717     1
 29.727     1
 29.737     2
 29.747     2
 29.757     2
 29.767     3
 29.777     3
 29.787     3
 29.797     4
 29.807     3
 29.817     3
 29.827     2
 29.837     1
 29.847     0
 29.857     0
 29.867     1
 29.877     2
 29.887     3
 29.897     3
 29.907     1
 29.917     2
 29.927     2
 29.937     0
 29.947     1
 29.957     2
 29.967     1
 29.977     1
 29.987     2
 29.997     3
 30.007     5
 30.017     4
 30.027     2
 30.037     1
 30.047     2
 30.057     4
 30.067     6
 30.077     6
 30.087     3
 30.097     2
 30.107     1
 30.117     2
 30.127     3
 30.137     3
 30.147     3
 30.157     3
 30.167     2
 30.177     1
 30.187     2
 30.197     1
 30.207     2
 30.217     3
 30.227     5
 30.237     5
 30.247     3
 30.257     2
 30.267     1
 30.277     2
 30.287     3
 30.297     1
 30.307     3
 30.317     4
 30.327     0
 30.337     1
 30.347     1
 30.357     1
 30.367     4
 30.377     4
 30.387     3
 30.397     6
 30.407     4
 30.417     1
 30.427     2
 30.437     2
 30.447     2
 30.457     3
 30.467     3
 30.477     3
 30.487     2
 30.497     2
30.5071     3
30.5171     4
30.5271     3
30.5371     3
30.5471     4
30.5571     3
30.5671     3
30.5771     4
30.5871     3
30.5971     3
30.6071     1
30.6171     1
30.6271     2
30.6371     2
30.6471     3
30.6571     5
30.6671     2
30.6771     1
30.6871     2
30.6971     3
30.7071     0
30.7171     1
30.7271     2
30.7371     1
30.7471     0
30.7571     1
30.7671     2
30.7771     4
30.7871     1
30.7971     0
30.8071     0
30.8171     0
30.8271     0
30.8371     2
30.8471     4
30.8571     5
30.8671     2
30.8771     0
30.8871     1
30.8971     1
30.9071     2
30.9171     1
30.9271     2
30.9371     2
30.9471     3
30.9571     2
30.9671     1
30.9771     1
30.9871     0
30.9971     2
31.0071     4
31.0171     2
31.0271     0
31.0371     1
31.0471     1
31.0571     2
31.0671     1
31.0771     3
31.0871     2
31.0971     2
31.1071     2
31.1171     0
31.1271     0
31.1371     2
31.1471     2
31.1571     1
31.1671     2
31.1771     1
31.1871     1
31.1971     1
31.2071     1
31.2171     1
31.2271     4
31.2371     3
31.2471     3
31.2571     1
31.2671     2
31.2771     3
31.2871     3
31.2971     0
31.3071     2
31.3171     3
31.3271     2
31.3371     0
31.3471     1
31.3571     2
31.3671     1
31.3771     3
31.3871     1
31.3971     1
31.4071     0
31.4171     1
31.4271     0
31.4371     1
31.4471     2
31.4571     2
31.4671     2
31.4771     3
31.4871     3
31.4971     2
31.5072     1
31.5172     3
31.5272     5
31.5372     4
31.5472     1
31.5572     4
31.5672     3
31.5772     1
31.5872     0
31.5972     0
31.6072     1
31.6172     3
31.6272     6
31.6372     3
31.6472     1
31.6572     2
31.6672     1
31.6772     2
31.6872     5
31.6972     3
31.7072     0
31.7172     1
31.7272     1
31.7372     2
31.7472     5
31.7572     3
31.7672     4
31.7772     2
31.7872     1
31.7972     1
31.8072     2
31.8172     1
31.8272     1
31.8372     2
31.8472     1
31.8572     1
31.8672     2
31.8772     3
31.8872     3
31.8972     2
31.9072     1
31.9172     0
31.9272     1
31.9372     3
31.9472     2
31.9572     2
31.9672     4
31.9772     3
31.9872     3
31.9972     1
32.0072     0
32.0172     1
32.0272     2
32.0372     1
32.0472     0
32.0572     1
32.0672     3
32.0772     1
32.0872     1
32.0972     1
32.1072     1
32.1172     2
32.1272     3
32.1372     3
32.1472     1
32.1572     2
32.1672     1
32.1772     2
32.1872     2
32.1972     0
32.2072     2
32.2172     2
32.2272     0
32.2372     1
32.2472     5
32.2572     5
32.2672     1
32.2772     3
32.2872     3
32.2972     2
32.3072     3
32.3172     0
32.3272     1
32.3372     3
32.3472     2
32.3572     1
32.3672     4
32.3772     4
32.3872     0
32.3972     1
32.4072     2
32.4172     3
32.4272     2
32.4372     0
32.4472     1
32.4572     2
32.4672     2
32.4772     3
32.4872     2
32.4972     3
32.5073     1
32.5173     2
32.5273     2
32.5373     2
32.5473     0
32.5573     0
32.5673     2
32.5773     3
32.5873     1
32.5973     3
32.6073     3
32.6173     1
32.6273     2
32.6373     1
32.6473     1
32.6573     1
32.6673     1
32.6773     1
32.6873     2
32.6973     1
32.7073     2
32.7173     2
32.7273     0
32.7373     0
32.7473     1
32.7573     2
32.7673     2
32.7773     2
32.7873     0
32.7973     0
32.8073     0
32.8173     1
32.8273     2
32.8373     2
32.8473     2
32.8573     2
32.8673     4
32.8773     2
32.8873     2
32.8973     1
32.9073     1
32.9173     1
32.9273     0
32.9373     1
32.9473     0
32.9573     1
32.9673     1
32.9773     1
32.9873     0
32.9973     0
33.0073     2
33.0173     6
33.0273     5
33.0373     2
33.0473     2
33.0573     1
33.0673     0
33.0773     0
33.0873     0
33.0973     0
33.1073     0
33.1173     0
33.1273     0
33.1373     0
33.1473     0
33.1573     1
33.1673     1
33.1773     1
33.1873     2
33.1973     2
33.2073     2
33.2173     2
33.2273     1
33.2373     2
33.2473     1
33.2573     0
33.2673     1
33.2773     3
33.2873     3
33.2973     1
33.3073     0
33.3173     1
33.3273     2
33.3373     3
33.3473     1
33.3573     1
33.3673     3
33.3773     1
33.3873     0
33.3973     1
33.4073     0
33.4173     0
33.4273     0
33.4373     0
33.4473     0
33.4573     1
33.4673     1
33.4773     2
33.4873     0
33.4973     0
33.5074     1
33.5174     3
33.5274     2
33.5374     3
33.5474     1
33.5574     0
33.5674     0
33.5774     0
33.5874     1
33.5974     3
33.6074     1
33.6174     1
33.6274     1
33.6374     3
33.6474     0
33.6574     1
33.6674     2
33.6774     2
33.6874     0
33.6974     0
33.7074     0
33.7174     0
33.7274     0
33.7374     0
33.7474     0
33.7574     0
33.7674     0
33.7774     0
33.7874     0
33.7974     1
33.8074     3
33.8174     1
33.8274     1
33.8374     1
33.8474     1
33.8574     0
33.8674     1
33.8774     2
33.8874     0
33.8974     0
33.9074     1
33.9174     2
33.9274     1
33.9374     1
33.9474     0
33.9574     0
33.9674     0
33.9774     0
33.9874     0
33.9974     0
34.0074     0
34.0174     0
34.0274     0
34.0374     1
34.0474     2
34.0574     0
34.0674     1
34.0774     3
34.0874     3
34.0974     1
34.1074     2
34.1174     2
34.1274     2
34.1374     0
34.1474     1
34.1574     2
34.1674     2
34.1774     0
34.1874     0
34.1974     0
34.2074     0
34.2174     0
34.2274     1
34.2374     0
34.2474     1
34.2574     0
34.2674     0
34.2774     1
34.2874     2
34.2974     1
34.3074     1
34.3174     0
34.3274     0
34.3374     0
34.3474     0
34.3574     0
34.3674     1
34.3774     2
34.3874     1
34.3974     0
34.4074     1
34.4174     4
34.4274     2
34.4374     0
34.4474     0
34.4574     1
34.4674     0
34.4774     0
34.4874     0
34.4974     0
34.5075     0
34.5175     0
34.5275     0
34.5375     0
34.5475     0
34.5575     1
34.5675     2
34.5775     0
34.5875     1
34.5975     2
34.6075     0
34.6175     0
34.6275     1
34.6375     2
34.6475     0
34.6575     0
34.6675     0
34.6775     0
34.6875     0
34.6975     0
34.7075     0
34.7175     0
34.7275     1
34.7375     0
34.7475     0
34.7575     0
34.7675     1
34.7775     2
34.7875     1
34.7975     1
34.8075     0
34.8175     0
34.8275     0
34.8375     0
34.8475     0
34.8575     1
34.8675     0
34.8775     0
34.8875     1
34.8975     1
34.9075     1
34.9175     1
34.9275     0
34.9375     0
34.9475     0
34.9575     0
34.9675     0
34.9775     0
34.9875     0
34.9975     1
35.0075     2
35.0175     2
35.0275     1
35.0375     1
35.0475     0
35.0575     0
35.0675     0
35.0775     1
35.0875     2
35.0975     0
35.1075     0
35.1175     0
35.1275     0
35.1375     0
35.1475     1
35.1575     0
35.1675     1
35.1775     1
35.1875     1
35.1975     1
35.2075     0
35.2175     0
35.2275     0
35.2375     1
35.2475     0
35.2575     1
35.2675     1
35.2775     0
35.2875     0
35.2975     0
35.3075     0
35.3175     0
35.3275     0
35.3375     0
35.3475     0
35.3575     0
35.3675     1
35.3775     2
35.3875     1
35.3975     1
35.4075     0
35.4175     0
35.4275     0
35.4375     0
35.4475     0
35.4575     0
35.4675     0
35.4775     0
35.4875     0
35.4975     0
35.5076     0
35.5176     0
35.5276     0
35.5376     1
35.5476     0
35.5576     1
35.5676     3
35.5776     2
35.5876     1
35.5976     0
35.6076     1
35.6176     1
35.6276     1
35.6376     0
35.6476     1
35.6576     1
35.6676     1
35.6776     0
35.6876     1
35.6976     2
35.7076     1
35.7176     0
35.7276     0
35.7376     1
35.7476     1
35.7576     1
35.7676     1
35.7776     0
35.7876     0
35.7976     0
35.8076     1
35.8176     1
35.8276     0
35.8376     0
35.8476     1
35.8576     1
35.8676     0
35.8776     0
35.8876     0
35.8976     0
35.9076     1
35.9176     1
35.9276     0
35.9376     0
35.9476     0
35.9576     1
35.9676     4
35.9776     3
35.9876     2
35.9976     0
36.0076     1
36.0176     1
36.0276     1
36.0376     1
36.0476     1
36.0576     1
36.0676     1
36.0776     0
36.0876     0
36.0976     0
36.1076     0
36.1176     1
36.1276     1
36.1376     0
36.1476     0
36.1576     1
36.1676     0
36.1776     0
36.1876     0
36.1976     1
36.2076     1
36.2176     1
36.2276     0
36.2376     1
36.2476     2
36.2576     1
36.2676     0
36.2776     0
36.2876     0
36.2976     0
36.3076     0
36.3176     0
36.3276     0
36.3376     0
36.3476     0
36.3576     0
36.3676     0
36.3776     0
36.3876     0
36.3976     1
36.4076     1
36.4176     1
36.4276     2
36.4376     2
36.4476     1
36.4576     0
36.4676     0
36.4776     1
36.4876     0
36.4976     0
36.5077     0
36.5177     1
36.5277     0
36.5377     0
36.5477     0
36.5577     0
36.5677     1
36.5777     1
36.5877     2
36.5977     0
36.6077     1
36.6177     1
36.6277     0
36.6377     0
36.6477     0
36.6577     0
36.6677     0
36.6777     0
36.6877     0
36.6977     0
36.7077     0
36.7177     1
36.7277     0
36.7377     1
36.7477     0
36.7577     0
36.7677     0
36.7777     0
36.7877     0
36.7977     0
36.8077     0
36.8177     1
36.8277     1
36.8377     1
36.8477     1
36.8577     1
36.8677     1
36.8777     1
36.8877     0
36.8977     0
36.9077     0
36.9177     0
36.9277     0
36.9377     0
36.9477     0
36.9577     1
36.9677     2
36.9777     0
36.9877     1
36.9977     0
37.0077     0
37.0177     1
37.0277     1
37.0377     1
37.0477     0
37.0577     0
37.0677     0
37.0777     0
37.0877     0
37.0977     0
37.1077     0
37.1177     0
37.1277     0
37.1377     0
37.1477     0
37.1577     0
37.1677     0
37.1777     0
37.1877     0
37.1977     0
37.2077     0
37.2177     0
37.2277     0
37.2377     0
37.2477     0
37.2577     0
37.2677     0
37.2777     0
37.2877     0
37.2977     1
37.3077     1
37.3177     0
37.3277     1
37.3377     0
37.3477     0
37.3577     0
37.3677     1
37.3777     2
37.3877     1
37.3977     2
37.4077     0
37.4177     0
37.4277     0
37.4377     0
37.4477     1
37.4577     1
37.4677     0
37.4777     1
37.4877     0
37.4977     0
37.5078     0
37.5178     0
37.5278     1
37.5378     2
37.5478     2
37.5578     0
37.5678     0
37.5778     0
37.5878     1
37.5978     1
37.6078     1
37.6178     1
37.6278     1
37.6378     0
37.6478     1
37.6578     1
37.6678     0
37.6778     0
37.6878     0
37.6978     1
37.7078     0
37.7178     0
37.7278     0
37.7378     0
37.7478     0
37.7578     0
37.7678     0
37.7778     0
37.7878     0
37.7978     0
37.8078     0
37.8178     0
37.8278     1
37.8378     0
37.8478     0
37.8578     0
37.8678     0
37.8778     0
37.8878     0
37.8978     0
37.9078     1
37.9178     0
37.9278     0
37.9378     0
37.9478     0
37.9578     0
37.9678     0
37.9778     1
37.9878     0
37.9978     0
38.0078     0
38.0178     0
38.0278     1
38.0378     0
38.0478     0
38.0578     0
38.0678     0
38.0778     0
38.0878     0
38.0978     0
38.1078     1
38.1178     1
38.1278     0
38.1378     0
38.1478     0
38.1578     0
38.1678     0
38.1778     0
38.1878     0
38.1978     0
38.2078     1
38.2178     0
38.2278     0
38.2378     0
38.2478     1
38.2578     1
38.2678     1
38.2778     0
38.2878     0
38.2978     0
38.3078     0
38.3178     0
38.3278     0
38.3378     0
38.3478     1
38.3578     0
38.3678     0
38.3778     0
38.3878     0
38.3978     0
38.4078     0
38.4178     0
38.4278     0
38.4378     0
38.4478     1
38.4578     1
38.4678     1
38.4778     0
38.4878     0
38.4978     0
38.5079     0
38.5179     0
38.5279     1
38.5379     1
38.5479     0
38.5579     0
38.5679     0
38.5779     0
38.5879     0
38.5979     0
38.6079     0
38.6179     0
38.6279     0
38.6379     0
38.6479     0
38.6579     0
38.6679     0
38.6779     0
38.6879     0
38.6979     1
38.7079     0
38.7179     0
38.7279     0
38.7379     0
38.7479     0
38.7579     0
38.7679     0
38.7779     0
38.7879     0
38.7979     0
38.8079     1
38.8179     0
38.8279     0
38.8379     1
38.8479     1
38.8579     1
38.8679     0
38.8779     0
38.8879     1
38.8979     2
38.9079     1
38.9179     1
38.9279     0
38.9379     0
38.9479     0
38.9579     0
38.9679     0
38.9779     0
38.9879     0
38.9979     0
39.0079     0
39.0179     0
39.0279     0
39.0379     0
39.0479     0
39.0579     0
39.0679     0
39.0779     0
39.0879     0
39.0979     0
39.1079     0
39.1179     0
39.1279     0
39.1379     0
39.1479     0
39.1579     0
39.1679     0
39.1779     0
39.1879     0
39.1979     0
39.2079     1
39.2179     1
39.2279     0
39.2379     1
39.2479     1
39.2579     1
39.2679     1
39.2779     0
39.2879     0
39.2979     0
39.3079     0
39.3179     0
39.3279     0
39.3379     0
39.3479     0
39.3579     0
39.3679     1
39.3779     1
39.3879     0
39.3979     0
39.4079     0
39.4179     0
39.4279     0
39.4379     0
39.4479     1
39.4579     0
39.4679     1
39.4779     0
39.4879     0
39.4979     1
 39.508     1
 39.518     0
 39.528     0
 39.538     0
 39.548     0
 39.558     0
 39.568     0
 39.578     0
 39.588     1
 39.598     0
 39.608     0
 39.618     0
 39.628     0
 39.638     0
 39.648     1
 39.658     1
 39.668     0
 39.678     0
 39.688     0
 39.698     1
 39.708     0
 39.718     1
 39.728     0
 39.738     0
 39.748     1
 39.758     1
 39.768     1
 39.778     1
 39.788     0
 39.798     0
 39.808     0
 39.818     1
 39.828     0
 39.838     1
 39.848     1
 39.858     1
 39.868     0
 39.878     0
 39.888     0
 39.898     0
 39.908     0
 39.918     1
 39.928     0
 39.938     0
 39.948     0
 39.958     1
 39.968     0
 39.978     0
 39.988     0
 39.998     0
