Bruker Nano GmbH Berlin, Germany
Esprit 1.9

Date: 4/5/2021 6:27:19 PM
Real time: 31331
Life time: 29996
Pulse density: 21321


Detector type: XFlash 430
Window type: Custom type
Detector thickness: 0.45
Si dead layer:0.029

Calibration, lin.: 10.001
Calibration, abs.: -956.096
Mn FWHM: 143.64
Fano factor: 0.114
Channels: 4096

Energy Counts
-0.9561     0
-0.9461     0
-0.9361     0
-0.9261     0
-0.9161     0
-0.9061     0
-0.8961     0
-0.8861     0
-0.8761     0
-0.8661     0
-0.8561     0
-0.8461     0
-0.8361     0
-0.8261     0
-0.8161     0
-0.8061     0
-0.7961     0
-0.7861     0
-0.7761     0
-0.7661     0
-0.7561     0
-0.7461     0
-0.7361     0
-0.7261     0
-0.7161     0
-0.7061     0
-0.6961     0
-0.6861     0
-0.6761     0
-0.6661     0
-0.6561     0
-0.6461     0
-0.6361     0
-0.6261     0
-0.6161     0
-0.6061     0
-0.5961     0
-0.5861     0
-0.5761     0
-0.5661     0
-0.5561     0
-0.5461     0
-0.5361     0
-0.5261     0
-0.5161     0
-0.5061     0
 -0.496     0
 -0.486     0
 -0.476     0
 -0.466     0
 -0.456     0
 -0.446     0
 -0.436     0
 -0.426     0
 -0.416     0
 -0.406     0
 -0.396     0
 -0.386     0
 -0.376     0
 -0.366     0
 -0.356     0
 -0.346     0
 -0.336     0
 -0.326     0
 -0.316     0
 -0.306     0
 -0.296     0
 -0.286     0
 -0.276     1
 -0.266     1
 -0.256     3
 -0.246     1
 -0.236     2
 -0.226     3
 -0.216     1
 -0.206     1
 -0.196     3
 -0.186     1
 -0.176     2
 -0.166     4
 -0.156     3
 -0.146     2
 -0.136    11
 -0.126    44
 -0.116    71
 -0.106   198
 -0.096   549
 -0.086  1321
 -0.076  2740
 -0.066  5288
 -0.056  9076
 -0.046 14151
 -0.036 20634
 -0.026 26692
 -0.016 32344
 -0.006 35427
  0.004 35498
  0.014 32698
  0.024 26782
  0.034 20875
  0.044 14508
  0.054  9194
  0.064  5430
  0.074  2820
  0.084  1330
  0.094   567
  0.104   218
  0.114    76
  0.124    28
  0.134    11
  0.144     3
  0.154     1
  0.164     1
  0.174     2
  0.184     0
  0.194     0
  0.204     0
  0.214     0
  0.224     0
  0.234     1
  0.244     1
  0.254     0
  0.264     0
  0.274     1
  0.284     0
  0.294    -1
  0.304    15
  0.314    52
  0.324    43
  0.334    40
  0.344    41
  0.354    42
  0.364    36
  0.374    31
  0.384    34
  0.394    30
  0.404    47
  0.414    35
  0.424    38
  0.434    34
  0.444    39
  0.454    36
  0.464    41
  0.474    34
  0.484    38
  0.494    32
 0.5041    31
 0.5141    33
 0.5241    37
 0.5341    35
 0.5441    26
 0.5541    36
 0.5641    34
 0.5741    31
 0.5841    17
 0.5941    31
 0.6041    31
 0.6141    31
 0.6241    27
 0.6341    29
 0.6441    25
 0.6541    30
 0.6641    29
 0.6741    27
 0.6841    23
 0.6941    31
 0.7041    36
 0.7141    39
 0.7241    19
 0.7341    28
 0.7441    28
 0.7541    21
 0.7641    20
 0.7741    26
 0.7841    27
 0.7941    26
 0.8041    37
 0.8141    26
 0.8241    25
 0.8341    22
 0.8441    19
 0.8541    30
 0.8641    27
 0.8741    29
 0.8841    28
 0.8941    23
 0.9041    16
 0.9141    26
 0.9241    23
 0.9341    15
 0.9441    40
 0.9541    20
 0.9641    27
 0.9741    28
 0.9841    31
 0.9941    21
 1.0041    25
 1.0141    17
 1.0241    24
 1.0341    32
 1.0441    23
 1.0541    29
 1.0641    23
 1.0741    24
 1.0841    29
 1.0941    23
 1.1041    19
 1.1141    23
 1.1241    29
 1.1341    28
 1.1441    31
 1.1541    27
 1.1641    23
 1.1741    25
 1.1841    23
 1.1941    33
 1.2041    26
 1.2141    23
 1.2241    31
 1.2341    30
 1.2441    19
 1.2541    16
 1.2641    22
 1.2741    22
 1.2841    21
 1.2941    23
 1.3041    21
 1.3141    21
 1.3241    28
 1.3341    22
 1.3441    15
 1.3541    18
 1.3641    17
 1.3741    15
 1.3841    13
 1.3941    19
 1.4041    17
 1.4141    17
 1.4241    15
 1.4341    15
 1.4441    16
 1.4541    18
 1.4641    16
 1.4741    14
 1.4841    14
 1.4941    15
 1.5042    17
 1.5142     8
 1.5242    15
 1.5342    13
 1.5442    11
 1.5542    18
 1.5642    11
 1.5742    17
 1.5842    15
 1.5942    11
 1.6042    10
 1.6142    12
 1.6242     7
 1.6342    16
 1.6442    11
 1.6542    15
 1.6642    14
 1.6742    14
 1.6842    16
 1.6942    24
 1.7042    25
 1.7142    35
 1.7242    37
 1.7342    28
 1.7442    28
 1.7542    33
 1.7642    30
 1.7742    26
 1.7842    25
 1.7942    24
 1.8042    18
 1.8142    17
 1.8242    17
 1.8342    13
 1.8442    10
 1.8542    11
 1.8642    10
 1.8742    10
 1.8842    17
 1.8942     9
 1.9042     2
 1.9142     8
 1.9242     9
 1.9342    10
 1.9442     9
 1.9542     9
 1.9642     8
 1.9742    11
 1.9842    12
 1.9942     8
 2.0042     2
 2.0142     4
 2.0242    11
 2.0342    12
 2.0442     8
 2.0542    10
 2.0642     8
 2.0742     9
 2.0842     8
 2.0942     9
 2.1042    10
 2.1142    11
 2.1242     6
 2.1342     5
 2.1442     8
 2.1542     8
 2.1642     8
 2.1742     6
 2.1842    12
 2.1942    21
 2.2042    30
 2.2142    21
 2.2242    29
 2.2342    37
 2.2442    47
 2.2542    70
 2.2642    91
 2.2742    96
 2.2842   123
 2.2942   130
 2.3042   133
 2.3142   132
 2.3242   143
 2.3342   136
 2.3442   106
 2.3542    96
 2.3642    73
 2.3742    57
 2.3842    46
 2.3942    43
 2.4042    31
 2.4142    22
 2.4242    25
 2.4342    19
 2.4442    19
 2.4542    20
 2.4642    18
 2.4742    21
 2.4842    20
 2.4942    20
 2.5043    15
 2.5143    11
 2.5243    17
 2.5343    16
 2.5443    15
 2.5543    12
 2.5643     7
 2.5743     9
 2.5843    11
 2.5943    12
 2.6043    14
 2.6143    12
 2.6243    13
 2.6343    17
 2.6443    21
 2.6543    20
 2.6643    26
 2.6743    29
 2.6843    26
 2.6943    23
 2.7043    21
 2.7143    27
 2.7243    19
 2.7343    36
 2.7443    21
 2.7543    16
 2.7643    18
 2.7743    18
 2.7843    22
 2.7943    24
 2.8043    34
 2.8143    26
 2.8243    30
 2.8343    40
 2.8443    54
 2.8543    60
 2.8643    95
 2.8743   117
 2.8843   128
 2.8943   166
 2.9043   220
 2.9143   266
 2.9243   318
 2.9343   354
 2.9443   419
 2.9543   425
 2.9643   406
 2.9743   411
 2.9843   384
 2.9943   343
 3.0043   301
 3.0143   234
 3.0243   193
 3.0343   140
 3.0443   116
 3.0543    81
 3.0643    59
 3.0743    41
 3.0843    27
 3.0943    24
 3.1043    22
 3.1143    21
 3.1243    19
 3.1343    37
 3.1443    36
 3.1543    43
 3.1643    44
 3.1743    60
 3.1843    65
 3.1943    62
 3.2043    66
 3.2143    54
 3.2243    53
 3.2343    66
 3.2443    66
 3.2543    71
 3.2643    77
 3.2743    88
 3.2843    90
 3.2943    88
 3.3043    95
 3.3143    81
 3.3243    97
 3.3343   103
 3.3443    81
 3.3543    79
 3.3643    63
 3.3743    53
 3.3843    44
 3.3943    35
 3.4043    36
 3.4143    25
 3.4243    21
 3.4343    18
 3.4443    12
 3.4543    13
 3.4643    10
 3.4743    16
 3.4843    15
 3.4943    15
 3.5044    11
 3.5144    14
 3.5244    33
 3.5344    36
 3.5444    46
 3.5544    70
 3.5644    97
 3.5744   166
 3.5844   232
 3.5944   321
 3.6044   410
 3.6144   552
 3.6244   703
 3.6344   901
 3.6444  1131
 3.6544  1351
 3.6644  1609
 3.6744  1768
 3.6844  1859
 3.6944  1924
 3.7044  1901
 3.7144  1832
 3.7244  1607
 3.7344  1465
 3.7444  1253
 3.7544  1039
 3.7644   810
 3.7744   610
 3.7844   460
 3.7944   340
 3.8044   229
 3.8144   163
 3.8244   109
 3.8344    83
 3.8444    50
 3.8544    41
 3.8644    36
 3.8744    40
 3.8844    44
 3.8944    57
 3.9044    67
 3.9144    70
 3.9244   111
 3.9344   141
 3.9444   159
 3.9544   178
 3.9644   226
 3.9744   253
 3.9844   281
 3.9944   327
 4.0044   342
 4.0144   348
 4.0244   339
 4.0344   329
 4.0444   296
 4.0544   281
 4.0644   246
 4.0744   198
 4.0844   154
 4.0944   137
 4.1044   114
 4.1144    81
 4.1244    61
 4.1344    43
 4.1444    38
 4.1544    33
 4.1644    19
 4.1744    12
 4.1844    17
 4.1944    18
 4.2044    19
 4.2144    13
 4.2244    11
 4.2344    15
 4.2444    12
 4.2544     9
 4.2644    13
 4.2744    19
 4.2844    24
 4.2944    17
 4.3044    18
 4.3144    20
 4.3244    26
 4.3344    37
 4.3444    54
 4.3544    79
 4.3644   107
 4.3744   138
 4.3844   206
 4.3944   261
 4.4044   383
 4.4144   528
 4.4244   708
 4.4344   853
 4.4444  1045
 4.4544  1324
 4.4644  1610
 4.4744  1824
 4.4844  1976
 4.4944  2200
 4.5045  2314
 4.5145  2389
 4.5245  2359
 4.5345  2127
 4.5445  1991
 4.5545  1764
 4.5645  1496
 4.5745  1286
 4.5845  1023
 4.5945   815
 4.6045   651
 4.6145   462
 4.6245   335
 4.6345   246
 4.6445   194
 4.6545   127
 4.6645    76
 4.6745    51
 4.6845    48
 4.6945    38
 4.7045    42
 4.7145    38
 4.7245    38
 4.7345    48
 4.7445    41
 4.7545    49
 4.7645    67
 4.7745    75
 4.7845    87
 4.7945    92
 4.8045   134
 4.8145   152
 4.8245   159
 4.8345   172
 4.8445   219
 4.8545   243
 4.8645   281
 4.8745   305
 4.8845   341
 4.8945   359
 4.9045   392
 4.9145   425
 4.9245   451
 4.9345   444
 4.9445   451
 4.9545   450
 4.9645   397
 4.9745   376
 4.9845   310
 4.9945   264
 5.0045   238
 5.0145   216
 5.0245   159
 5.0345   120
 5.0445   106
 5.0545    83
 5.0645    75
 5.0745    62
 5.0845    52
 5.0945    47
 5.1045    46
 5.1145    46
 5.1245    40
 5.1345    47
 5.1445    57
 5.1545    47
 5.1645    38
 5.1745    42
 5.1845    59
 5.1945    50
 5.2045    50
 5.2145    39
 5.2245    32
 5.2345    33
 5.2445    32
 5.2545    31
 5.2645    39
 5.2745    46
 5.2845    41
 5.2945    47
 5.3045    60
 5.3145    67
 5.3245    76
 5.3345    95
 5.3445    89
 5.3545   114
 5.3645   125
 5.3745   141
 5.3845   168
 5.3945   172
 5.4045   157
 5.4145   188
 5.4245   158
 5.4345   169
 5.4445   166
 5.4545   155
 5.4645   140
 5.4745   129
 5.4845   103
 5.4945    98
 5.5046    70
 5.5146    69
 5.5246    69
 5.5346    50
 5.5446    50
 5.5546    59
 5.5646    52
 5.5746    47
 5.5846    43
 5.5946    43
 5.6046    40
 5.6146    49
 5.6246    37
 5.6346    37
 5.6446    37
 5.6546    29
 5.6646    32
 5.6746    34
 5.6846    36
 5.6946    26
 5.7046    36
 5.7146    29
 5.7246    37
 5.7346    42
 5.7446    38
 5.7546    48
 5.7646    49
 5.7746    41
 5.7846    51
 5.7946    48
 5.8046    45
 5.8146    49
 5.8246    32
 5.8346    51
 5.8446    63
 5.8546    72
 5.8646    57
 5.8746    62
 5.8846    71
 5.8946    80
 5.9046    94
 5.9146    76
 5.9246    68
 5.9346    58
 5.9446    61
 5.9546    67
 5.9646    52
 5.9746    61
 5.9846    65
 5.9946    53
 6.0046    45
 6.0146    46
 6.0246    56
 6.0346    54
 6.0446    50
 6.0546    45
 6.0646    55
 6.0746    49
 6.0846    56
 6.0946    56
 6.1046    56
 6.1146    46
 6.1246    52
 6.1346    61
 6.1446    46
 6.1546    45
 6.1646    58
 6.1746    63
 6.1846    68
 6.1946    62
 6.2046    62
 6.2146    58
 6.2246    59
 6.2346    73
 6.2446    72
 6.2546    73
 6.2646    79
 6.2746   102
 6.2846   127
 6.2946   142
 6.3046   171
 6.3146   184
 6.3246   208
 6.3346   258
 6.3446   277
 6.3546   303
 6.3646   350
 6.3746   392
 6.3846   408
 6.3946   433
 6.4046   419
 6.4146   414
 6.4246   430
 6.4346   394
 6.4446   360
 6.4546   378
 6.4646   315
 6.4746   284
 6.4846   245
 6.4946   209
 6.5047   176
 6.5147   144
 6.5247   146
 6.5347   104
 6.5447    88
 6.5547    99
 6.5647    96
 6.5747    78
 6.5847    73
 6.5947    64
 6.6047    65
 6.6147    89
 6.6247    70
 6.6347    55
 6.6447    50
 6.6547    72
 6.6647    69
 6.6747    55
 6.6847    61
 6.6947    62
 6.7047    58
 6.7147    68
 6.7247    69
 6.7347    74
 6.7447    79
 6.7547    66
 6.7647    72
 6.7747    82
 6.7847    73
 6.7947    62
 6.8047    63
 6.8147    76
 6.8247    80
 6.8347    86
 6.8447    84
 6.8547    89
 6.8647    78
 6.8747    86
 6.8847    85
 6.8947    81
 6.9047    88
 6.9147    76
 6.9247    89
 6.9347    96
 6.9447   111
 6.9547   101
 6.9647   101
 6.9747   110
 6.9847   100
 6.9947   121
 7.0047   127
 7.0147   142
 7.0247   140
 7.0347   133
 7.0447   138
 7.0547   144
 7.0647   134
 7.0747   150
 7.0847   159
 7.0947   141
 7.1047   137
 7.1147   122
 7.1247   122
 7.1347   121
 7.1447   123
 7.1547   120
 7.1647   108
 7.1747   112
 7.1847   109
 7.1947   114
 7.2047   112
 7.2147    97
 7.2247   100
 7.2347   110
 7.2447    92
 7.2547    94
 7.2647   110
 7.2747    98
 7.2847    92
 7.2947    87
 7.3047    94
 7.3147   100
 7.3247   104
 7.3347   113
 7.3447   103
 7.3547   104
 7.3647   109
 7.3747   108
 7.3847   106
 7.3947   111
 7.4047   111
 7.4147   112
 7.4247   109
 7.4347   114
 7.4447   105
 7.4547   134
 7.4647   130
 7.4747   131
 7.4847   135
 7.4947   137
 7.5048   129
 7.5148   118
 7.5248   120
 7.5348   127
 7.5448   131
 7.5548   137
 7.5648   143
 7.5748   133
 7.5848   126
 7.5948   133
 7.6048   127
 7.6148   128
 7.6248   122
 7.6348   123
 7.6448   131
 7.6548   135
 7.6648   139
 7.6748   128
 7.6848   132
 7.6948   136
 7.7048   129
 7.7148   126
 7.7248   145
 7.7348   148
 7.7448   142
 7.7548   135
 7.7648   132
 7.7748   125
 7.7848   132
 7.7948   154
 7.8048   151
 7.8148   139
 7.8248   135
 7.8348   135
 7.8448   140
 7.8548   135
 7.8648   144
 7.8748   155
 7.8848   155
 7.8948   152
 7.9048   155
 7.9148   147
 7.9248   148
 7.9348   150
 7.9448   151
 7.9548   150
 7.9648   155
 7.9748   166
 7.9848   169
 7.9948   162
 8.0048   148
 8.0148   155
 8.0248   167
 8.0348   171
 8.0448   169
 8.0548   179
 8.0648   176
 8.0748   165
 8.0848   163
 8.0948   168
 8.1048   173
 8.1148   164
 8.1248   162
 8.1348   176
 8.1448   171
 8.1548   175
 8.1648   173
 8.1748   162
 8.1848   181
 8.1948   184
 8.2048   167
 8.2148   173
 8.2248   176
 8.2348   168
 8.2448   162
 8.2548   160
 8.2648   175
 8.2748   185
 8.2848   195
 8.2948   207
 8.3048   202
 8.3148   189
 8.3248   186
 8.3348   193
 8.3448   201
 8.3548   206
 8.3648   216
 8.3748   200
 8.3848   216
 8.3948   222
 8.4048   199
 8.4148   194
 8.4248   196
 8.4348   197
 8.4448   207
 8.4548   225
 8.4648   215
 8.4748   200
 8.4848   214
 8.4948   219
 8.5049   219
 8.5149   219
 8.5249   209
 8.5349   215
 8.5449   228
 8.5549   234
 8.5649   228
 8.5749   226
 8.5849   218
 8.5949   221
 8.6049   228
 8.6149   233
 8.6249   211
 8.6349   192
 8.6449   207
 8.6549   227
 8.6649   220
 8.6749   215
 8.6849   230
 8.6949   241
 8.7049   247
 8.7149   254
 8.7249   244
 8.7349   232
 8.7449   241
 8.7549   225
 8.7649   232
 8.7749   240
 8.7849   239
 8.7949   256
 8.8049   249
 8.8149   241
 8.8249   242
 8.8349   243
 8.8449   240
 8.8549   252
 8.8649   255
 8.8749   254
 8.8849   262
 8.8949   255
 8.9049   251
 8.9149   256
 8.9249   257
 8.9349   279
 8.9449   286
 8.9549   257
 8.9649   239
 8.9749   251
 8.9849   269
 8.9949   259
 9.0049   256
 9.0149   282
 9.0249   287
 9.0349   278
 9.0449   266
 9.0549   249
 9.0649   264
 9.0749   279
 9.0849   274
 9.0949   257
 9.1049   257
 9.1149   279
 9.1249   276
 9.1349   278
 9.1449   283
 9.1549   265
 9.1649   271
 9.1749   276
 9.1849   265
 9.1949   275
 9.2049   282
 9.2149   270
 9.2249   293
 9.2349   294
 9.2449   277
 9.2549   271
 9.2649   291
 9.2749   299
 9.2849   304
 9.2949   292
 9.3049   297
 9.3149   311
 9.3249   309
 9.3349   299
 9.3449   308
 9.3549   317
 9.3649   307
 9.3749   300
 9.3849   311
 9.3949   305
 9.4049   308
 9.4149   320
 9.4249   336
 9.4349   340
 9.4449   318
 9.4549   318
 9.4649   304
 9.4749   303
 9.4849   311
 9.4949   308
  9.505   323
  9.515   332
  9.525   324
  9.535   312
  9.545   334
  9.555   337
  9.565   325
  9.575   324
  9.585   342
  9.595   326
  9.605   326
  9.615   328
  9.625   343
  9.635   349
  9.645   348
  9.655   356
  9.665   341
  9.675   339
  9.685   331
  9.695   333
  9.705   346
  9.715   342
  9.725   334
  9.735   345
  9.745   348
  9.755   349
  9.765   348
  9.775   341
  9.785   356
  9.795   346
  9.805   344
  9.815   342
  9.825   369
  9.835   374
  9.845   344
  9.855   367
  9.865   361
  9.875   355
  9.885   358
  9.895   364
  9.905   355
  9.915   329
  9.925   356
  9.935   363
  9.945   355
  9.955   372
  9.965   383
  9.975   408
  9.985   404
  9.995   381
 10.005   385
 10.015   385
 10.025   354
 10.035   368
 10.045   401
 10.055   397
 10.065   393
 10.075   386
 10.085   356
 10.095   356
 10.105   394
 10.115   399
 10.125   408
 10.135   391
 10.145   382
 10.155   380
 10.165   388
 10.175   386
 10.185   384
 10.195   400
 10.205   407
 10.215   417
 10.225   407
 10.235   406
 10.245   399
 10.255   387
 10.265   407
 10.275   435
 10.285   391
 10.295   384
 10.305   390
 10.315   407
 10.325   405
 10.335   423
 10.345   402
 10.355   400
 10.365   408
 10.375   427
 10.385   414
 10.395   448
 10.405   453
 10.415   449
 10.425   435
 10.435   417
 10.445   418
 10.455   431
 10.465   435
 10.475   424
 10.485   403
 10.495   445
10.5051   444
10.5151   461
10.5251   447
10.5351   439
10.5451   436
10.5551   432
10.5651   424
10.5751   435
10.5851   470
10.5951   472
10.6051   450
10.6151   468
10.6251   469
10.6351   413
10.6451   432
10.6551   463
10.6651   446
10.6751   440
10.6851   433
10.6951   433
10.7051   470
10.7151   495
10.7251   456
10.7351   435
10.7451   428
10.7551   455
10.7651   460
10.7751   430
10.7851   493
10.7951   479
10.8051   482
10.8151   475
10.8251   452
10.8351   477
10.8451   480
10.8551   523
10.8651   490
10.8751   443
10.8851   450
10.8951   423
10.9051   476
10.9151   452
10.9251   454
10.9351   473
10.9451   465
10.9551   462
10.9651   459
10.9751   459
10.9851   491
10.9951   443
11.0051   472
11.0151   495
11.0251   494
11.0351   472
11.0451   472
11.0551   465
11.0651   468
11.0751   451
11.0851   471
11.0951   456
11.1051   458
11.1151   460
11.1251   476
11.1351   456
11.1451   459
11.1551   495
11.1651   497
11.1751   502
11.1851   472
11.1951   499
11.2051   507
11.2151   463
11.2251   463
11.2351   522
11.2451   483
11.2551   475
11.2651   498
11.2751   490
11.2851   523
11.2951   473
11.3051   485
11.3151   468
11.3251   493
11.3351   510
11.3451   473
11.3551   503
11.3651   515
11.3751   490
11.3851   469
11.3951   439
11.4051   484
11.4151   491
11.4251   546
11.4351   485
11.4451   463
11.4551   510
11.4651   495
11.4751   512
11.4851   499
11.4951   500
11.5052   517
11.5152   486
11.5252   502
11.5352   511
11.5452   466
11.5552   501
11.5652   474
11.5752   499
11.5852   509
11.5952   502
11.6052   489
11.6152   500
11.6252   504
11.6352   492
11.6452   494
11.6552   531
11.6652   486
11.6752   496
11.6852   523
11.6952   513
11.7052   514
11.7152   506
11.7252   519
11.7352   512
11.7452   520
11.7552   496
11.7652   533
11.7752   487
11.7852   523
11.7952   504
11.8052   547
11.8152   525
11.8252   473
11.8352   492
11.8452   518
11.8552   525
11.8652   528
11.8752   537
11.8852   524
11.8952   525
11.9052   517
11.9152   548
11.9252   538
11.9352   540
11.9452   519
11.9552   562
11.9652   557
11.9752   556
11.9852   522
11.9952   525
12.0052   508
12.0152   515
12.0252   508
12.0352   503
12.0452   514
12.0552   534
12.0652   515
12.0752   537
12.0852   544
12.0952   479
12.1052   515
12.1152   535
12.1252   506
12.1352   511
12.1452   556
12.1552   537
12.1652   511
12.1752   512
12.1852   526
12.1952   527
12.2052   522
12.2152   535
12.2252   526
12.2352   528
12.2452   528
12.2552   452
12.2652   546
12.2752   495
12.2852   492
12.2952   483
12.3052   529
12.3152   511
12.3252   531
12.3352   508
12.3452   496
12.3552   577
12.3652   557
12.3752   513
12.3852   538
12.3952   493
12.4052   497
12.4152   519
12.4252   524
12.4352   517
12.4452   474
12.4552   488
12.4652   496
12.4752   481
12.4852   510
12.4952   488
12.5053   489
12.5153   514
12.5253   505
12.5353   520
12.5453   513
12.5553   536
12.5653   545
12.5753   503
12.5853   488
12.5953   497
12.6053   492
12.6153   546
12.6253   523
12.6353   557
12.6453   528
12.6553   478
12.6653   493
12.6753   504
12.6853   497
12.6953   504
12.7053   513
12.7153   520
12.7253   527
12.7353   488
12.7453   490
12.7553   483
12.7653   470
12.7753   513
12.7853   541
12.7953   533
12.8053   530
12.8153   484
12.8253   511
12.8353   526
12.8453   514
12.8553   527
12.8653   521
12.8753   507
12.8853   521
12.8953   514
12.9053   512
12.9153   502
12.9253   478
12.9353   491
12.9453   528
12.9553   489
12.9653   509
12.9753   524
12.9853   499
12.9953   472
13.0053   490
13.0153   470
13.0253   509
13.0353   457
13.0453   478
13.0553   477
13.0653   501
13.0753   491
13.0853   490
13.0953   545
13.1053   496
13.1153   490
13.1253   492
13.1353   491
13.1453   471
13.1553   513
13.1653   508
13.1753   468
13.1853   486
13.1953   466
13.2053   496
13.2153   480
13.2253   521
13.2353   469
13.2453   508
13.2553   467
13.2653   471
13.2753   483
13.2853   510
13.2953   503
13.3053   550
13.3153   456
13.3253   498
13.3353   521
13.3453   476
13.3553   493
13.3653   474
13.3753   469
13.3853   478
13.3953   487
13.4053   486
13.4153   456
13.4253   488
13.4353   445
13.4453   464
13.4553   448
13.4653   494
13.4753   511
13.4853   468
13.4953   470
13.5054   460
13.5154   445
13.5254   503
13.5354   476
13.5454   475
13.5554   491
13.5654   448
13.5754   451
13.5854   443
13.5954   432
13.6054   497
13.6154   471
13.6254   477
13.6354   474
13.6454   462
13.6554   495
13.6654   466
13.6754   451
13.6854   418
13.6954   465
13.7054   483
13.7154   469
13.7254   456
13.7354   450
13.7454   442
13.7554   441
13.7654   431
13.7754   424
13.7854   422
13.7954   442
13.8054   453
13.8154   476
13.8254   434
13.8354   465
13.8454   465
13.8554   449
13.8654   462
13.8754   410
13.8854   424
13.8954   476
13.9054   437
13.9154   495
13.9254   461
13.9354   451
13.9454   494
13.9554   458
13.9654   421
13.9754   450
13.9854   441
13.9954   458
14.0054   466
14.0154   454
14.0254   433
14.0354   504
14.0454   473
14.0554   464
14.0654   488
14.0754   465
14.0854   465
14.0954   496
14.1054   438
14.1154   463
14.1254   456
14.1354   513
14.1454   477
14.1554   500
14.1654   489
14.1754   465
14.1854   478
14.1954   454
14.2054   486
14.2154   439
14.2254   445
14.2354   487
14.2454   447
14.2554   458
14.2654   446
14.2754   448
14.2854   443
14.2954   402
14.3054   437
14.3154   403
14.3254   430
14.3354   403
14.3454   449
14.3554   425
14.3654   418
14.3754   418
14.3854   418
14.3954   416
14.4054   446
14.4154   413
14.4254   433
14.4354   403
14.4454   403
14.4554   444
14.4654   413
14.4754   404
14.4854   425
14.4954   409
14.5055   380
14.5155   410
14.5255   394
14.5355   417
14.5455   394
14.5555   420
14.5655   389
14.5755   373
14.5855   400
14.5955   399
14.6055   412
14.6155   443
14.6255   414
14.6355   386
14.6455   396
14.6555   401
14.6655   393
14.6755   419
14.6855   401
14.6955   381
14.7055   393
14.7155   393
14.7255   384
14.7355   368
14.7455   397
14.7555   372
14.7655   359
14.7755   382
14.7855   384
14.7955   384
14.8055   338
14.8155   371
14.8255   381
14.8355   368
14.8455   384
14.8555   366
14.8655   404
14.8755   358
14.8855   369
14.8955   374
14.9055   389
14.9155   380
14.9255   404
14.9355   368
14.9455   396
14.9555   387
14.9655   369
14.9755   367
14.9855   382
14.9955   391
15.0055   381
15.0155   397
15.0255   357
15.0355   392
15.0455   371
15.0555   394
15.0655   373
15.0755   353
15.0855   365
15.0955   342
15.1055   381
15.1155   342
15.1255   349
15.1355   372
15.1455   364
15.1555   344
15.1655   350
15.1755   359
15.1855   362
15.1955   342
15.2055   342
15.2155   354
15.2255   356
15.2355   374
15.2455   375
15.2555   342
15.2655   322
15.2755   322
15.2855   327
15.2955   353
15.3055   341
15.3155   322
15.3255   364
15.3355   362
15.3455   338
15.3555   355
15.3655   335
15.3755   314
15.3855   353
15.3955   359
15.4055   366
15.4155   362
15.4255   322
15.4355   335
15.4455   338
15.4555   335
15.4655   364
15.4755   362
15.4855   336
15.4955   341
15.5056   341
15.5156   330
15.5256   333
15.5356   348
15.5456   349
15.5556   319
15.5656   346
15.5756   337
15.5856   342
15.5956   343
15.6056   326
15.6156   335
15.6256   341
15.6356   318
15.6456   328
15.6556   343
15.6656   347
15.6756   314
15.6856   330
15.6956   366
15.7056   322
15.7156   311
15.7256   340
15.7356   346
15.7456   329
15.7556   349
15.7656   346
15.7756   336
15.7856   323
15.7956   329
15.8056   345
15.8156   345
15.8256   312
15.8356   334
15.8456   352
15.8556   330
15.8656   358
15.8756   326
15.8856   316
15.8956   290
15.9056   309
15.9156   315
15.9256   308
15.9356   295
15.9456   304
15.9556   296
15.9656   300
15.9756   311
15.9856   301
15.9956   302
16.0056   290
16.0156   313
16.0256   296
16.0356   313
16.0456   313
16.0556   293
16.0656   283
16.0756   300
16.0856   300
16.0956   295
16.1056   303
16.1156   279
16.1256   280
16.1356   275
16.1456   285
16.1556   285
16.1656   280
16.1756   294
16.1856   296
16.1956   271
16.2056   262
16.2156   286
16.2256   291
16.2356   283
16.2456   268
16.2556   280
16.2656   321
16.2756   292
16.2856   292
16.2956   291
16.3056   264
16.3156   259
16.3256   260
16.3356   287
16.3456   268
16.3556   274
16.3656   280
16.3756   276
16.3856   274
16.3956   290
16.4056   304
16.4156   281
16.4256   269
16.4356   267
16.4456   268
16.4556   269
16.4656   273
16.4756   265
16.4856   271
16.4956   280
16.5057   279
16.5157   262
16.5257   269
16.5357   271
16.5457   261
16.5557   264
16.5657   259
16.5757   265
16.5857   277
16.5957   261
16.6057   244
16.6157   248
16.6257   247
16.6357   252
16.6457   252
16.6557   274
16.6657   267
16.6757   276
16.6857   274
16.6957   259
16.7057   265
16.7157   257
16.7257   258
16.7357   248
16.7457   263
16.7557   252
16.7657   231
16.7757   259
16.7857   255
16.7957   242
16.8057   236
16.8157   244
16.8257   241
16.8357   248
16.8457   252
16.8557   252
16.8657   243
16.8757   243
16.8857   262
16.8957   261
16.9057   242
16.9157   239
16.9257   255
16.9357   260
16.9457   231
16.9557   233
16.9657   255
16.9757   237
16.9857   234
16.9957   243
17.0057   248
17.0157   242
17.0257   227
17.0357   224
17.0457   232
17.0557   227
17.0657   235
17.0757   245
17.0857   258
17.0957   263
17.1057   251
17.1157   249
17.1257   251
17.1357   250
17.1457   251
17.1557   255
17.1657   246
17.1757   221
17.1857   227
17.1957   244
17.2057   248
17.2157   232
17.2257   237
17.2357   246
17.2457   236
17.2557   247
17.2657   251
17.2757   263
17.2857   269
17.2957   245
17.3057   221
17.3157   236
17.3257   238
17.3357   210
17.3457   212
17.3557   232
17.3657   251
17.3757   252
17.3857   233
17.3957   221
17.4057   226
17.4157   225
17.4257   231
17.4357   244
17.4457   248
17.4557   244
17.4657   256
17.4757   245
17.4857   247
17.4957   241
17.5058   247
17.5158   231
17.5258   229
17.5358   241
17.5458   241
17.5558   240
17.5658   243
17.5758   241
17.5858   240
17.5958   257
17.6058   252
17.6158   237
17.6258   247
17.6358   240
17.6458   266
17.6558   262
17.6658   250
17.6758   244
17.6858   240
17.6958   233
17.7058   237
17.7158   235
17.7258   239
17.7358   252
17.7458   239
17.7558   242
17.7658   252
17.7758   248
17.7858   253
17.7958   259
17.8058   248
17.8158   253
17.8258   259
17.8358   252
17.8458   249
17.8558   244
17.8658   261
17.8758   263
17.8858   253
17.8958   253
17.9058   274
17.9158   285
17.9258   256
17.9358   264
17.9458   279
17.9558   278
17.9658   278
17.9758   274
17.9858   267
17.9958   262
18.0058   281
18.0158   288
18.0258   279
18.0358   284
18.0458   286
18.0558   277
18.0658   295
18.0758   301
18.0858   286
18.0958   286
18.1058   286
18.1158   291
18.1258   287
18.1358   276
18.1458   280
18.1558   299
18.1658   314
18.1758   314
18.1858   318
18.1958   337
18.2058   355
18.2158   345
18.2258   337
18.2358   358
18.2458   386
18.2558   383
18.2658   396
18.2758   423
18.2858   414
18.2958   429
18.3058   428
18.3158   421
18.3258   417
18.3358   427
18.3458   459
18.3558   466
18.3658   489
18.3758   521
18.3858   535
18.3958   568
18.4058   585
18.4158   593
18.4258   629
18.4358   633
18.4458   646
18.4558   680
18.4658   716
18.4758   753
18.4858   749
18.4958   771
18.5059   798
18.5159   801
18.5259   822
18.5359   867
18.5459   916
18.5559   907
18.5659   932
18.5759   988
18.5859   971
18.5959   986
18.6059  1008
18.6159  1075
18.6259  1135
18.6359  1147
18.6459  1179
18.6559  1178
18.6659  1197
18.6759  1218
18.6859  1231
18.6959  1253
18.7059  1240
18.7159  1273
18.7259  1273
18.7359  1269
18.7459  1321
18.7559  1281
18.7659  1286
18.7759  1277
18.7859  1257
18.7959  1272
18.8059  1268
18.8159  1287
18.8259  1311
18.8359  1270
18.8459  1245
18.8559  1246
18.8659  1213
18.8759  1199
18.8859  1186
18.8959  1154
18.9059  1141
18.9159  1149
18.9259  1135
18.9359  1116
18.9459  1089
18.9559  1041
18.9659   995
18.9759   955
18.9859   953
18.9959   915
19.0059   898
19.0159   908
19.0259   877
19.0359   840
19.0459   809
19.0559   779
19.0659   760
19.0759   728
19.0859   681
19.0959   662
19.1059   671
19.1159   662
19.1259   626
19.1359   585
19.1459   575
19.1559   528
19.1659   509
19.1759   504
19.1859   465
19.1959   455
19.2059   459
19.2159   431
19.2259   413
19.2359   423
19.2459   398
19.2559   360
19.2659   359
19.2759   369
19.2859   357
19.2959   333
19.3059   321
19.3159   306
19.3259   299
19.3359   297
19.3459   297
19.3559   304
19.3659   288
19.3759   262
19.3859   260
19.3959   270
19.4059   272
19.4159   276
19.4259   256
19.4359   251
19.4459   270
19.4559   261
19.4659   246
19.4759   238
19.4859   222
19.4959   212
 19.506   218
 19.516   215
 19.526   201
 19.536   224
 19.546   213
 19.556   196
 19.566   198
 19.576   192
 19.586   200
 19.596   213
 19.606   224
 19.616   220
 19.626   204
 19.636   193
 19.646   190
 19.656   190
 19.666   197
 19.676   185
 19.686   180
 19.696   174
 19.706   168
 19.716   165
 19.726   178
 19.736   173
 19.746   167
 19.756   170
 19.766   171
 19.776   164
 19.786   161
 19.796   153
 19.806   147
 19.816   144
 19.826   153
 19.836   144
 19.846   139
 19.856   140
 19.866   140
 19.876   160
 19.886   146
 19.896   145
 19.906   150
 19.916   136
 19.926   132
 19.936   143
 19.946   141
 19.956   159
 19.966   168
 19.976   176
 19.986   187
 19.996   192
 20.006   197
 20.016   193
 20.026   200
 20.036   202
 20.046   212
 20.056   223
 20.066   245
 20.076   249
 20.086   259
 20.096   271
 20.106   286
 20.116   286
 20.126   281
 20.136   278
 20.146   286
 20.156   303
 20.166   306
 20.176   304
 20.186   326
 20.196   331
 20.206   311
 20.216   297
 20.226   296
 20.236   294
 20.246   312
 20.256   295
 20.266   285
 20.276   272
 20.286   257
 20.296   239
 20.306   241
 20.316   242
 20.326   228
 20.336   208
 20.346   212
 20.356   220
 20.366   186
 20.376   163
 20.386   157
 20.396   157
 20.406   145
 20.416   143
 20.426   138
 20.436   131
 20.446   133
 20.456   120
 20.466   122
 20.476   116
 20.486   119
 20.496   130
20.5061   130
20.5161   116
20.5261   122
20.5361   130
20.5461   121
20.5561   124
20.5661   128
20.5761   126
20.5861   123
20.5961   118
20.6061   120
20.6161   127
20.6261   122
20.6361   126
20.6461   129
20.6561   130
20.6661   165
20.6761   163
20.6861   154
20.6961   151
20.7061   150
20.7161   163
20.7261   153
20.7361   145
20.7461   141
20.7561   146
20.7661   163
20.7761   162
20.7861   166
20.7961   175
20.8061   156
20.8161   179
20.8261   179
20.8361   169
20.8461   194
20.8561   217
20.8661   207
20.8761   169
20.8861   173
20.8961   196
20.9061   184
20.9161   187
20.9261   193
20.9361   186
20.9461   201
20.9561   189
20.9661   194
20.9761   186
20.9861   198
20.9961   207
21.0061   194
21.0161   193
21.0261   168
21.0361   167
21.0461   168
21.0561   168
21.0661   166
21.0761   189
21.0861   188
21.0961   191
21.1061   179
21.1161   177
21.1261   167
21.1361   160
21.1461   164
21.1561   155
21.1661   142
21.1761   163
21.1861   148
21.1961   142
21.2061   160
21.2161   157
21.2261   155
21.2361   163
21.2461   150
21.2561   134
21.2661   137
21.2761   135
21.2861   111
21.2961   122
21.3061   127
21.3161   116
21.3261   131
21.3361   126
21.3461   120
21.3561   124
21.3661   126
21.3761   101
21.3861   112
21.3961    99
21.4061   111
21.4161    99
21.4261   112
21.4361   105
21.4461    97
21.4561    96
21.4661   107
21.4761   110
21.4861    97
21.4961    86
21.5062    91
21.5162    95
21.5262    85
21.5362    83
21.5462    74
21.5562    79
21.5662    84
21.5762    68
21.5862    74
21.5962    71
21.6062    67
21.6162    66
21.6262    66
21.6362    56
21.6462    71
21.6562    79
21.6662    62
21.6762    65
21.6862    58
21.6962    54
21.7062    58
21.7162    59
21.7262    59
21.7362    56
21.7462    59
21.7562    61
21.7662    48
21.7762    48
21.7862    55
21.7962    63
21.8062    52
21.8162    48
21.8262    47
21.8362    39
21.8462    53
21.8562    51
21.8662    55
21.8762    60
21.8862    56
21.8962    47
21.9062    46
21.9162    47
21.9262    41
21.9362    46
21.9462    55
21.9562    50
21.9662    49
21.9762    42
21.9862    39
21.9962    42
22.0062    44
22.0162    42
22.0262    45
22.0362    47
22.0462    40
22.0562    37
22.0662    36
22.0762    45
22.0862    43
22.0962    41
22.1062    46
22.1162    55
22.1262    40
22.1362    47
22.1462    58
22.1562    41
22.1662    44
22.1762    45
22.1862    36
22.1962    30
22.2062    37
22.2162    43
22.2262    28
22.2362    31
22.2462    35
22.2562    36
22.2662    29
22.2762    29
22.2862    44
22.2962    39
22.3062    36
22.3162    39
22.3262    36
22.3362    29
22.3462    38
22.3562    45
22.3662    36
22.3762    34
22.3862    39
22.3962    41
22.4062    31
22.4162    27
22.4262    29
22.4362    36
22.4462    37
22.4562    37
22.4662    39
22.4762    42
22.4862    39
22.4962    33
22.5063    40
22.5163    33
22.5263    42
22.5363    43
22.5463    31
22.5563    33
22.5663    30
22.5763    33
22.5863    45
22.5963    32
22.6063    40
22.6163    33
22.6263    38
22.6363    38
22.6463    45
22.6563    42
22.6663    35
22.6763    43
22.6863    47
22.6963    51
22.7063    49
22.7163    54
22.7263    49
22.7363    44
22.7463    38
22.7563    50
22.7663    37
22.7763    40
22.7863    39
22.7963    37
22.8063    48
22.8163    43
22.8263    39
22.8363    41
22.8463    44
22.8563    46
22.8663    39
22.8763    35
22.8863    33
22.8963    23
22.9063    33
22.9163    33
22.9263    28
22.9363    24
22.9463    23
22.9563    25
22.9663    32
22.9763    29
22.9863    24
22.9963    19
23.0063    24
23.0163    33
23.0263    24
23.0363    29
23.0463    27
23.0563    25
23.0663    30
23.0763    33
23.0863    25
23.0963    23
23.1063    27
23.1163    20
23.1263    25
23.1363    24
23.1463    20
23.1563    25
23.1663    26
23.1763    27
23.1863    27
23.1963    23
23.2063    30
23.2163    35
23.2263    22
23.2363    23
23.2463    26
23.2563    20
23.2663    25
23.2763    24
23.2863    21
23.2963    22
23.3063    27
23.3163    26
23.3263    32
23.3363    27
23.3463    17
23.3563    18
23.3663    24
23.3763    27
23.3863    21
23.3963    13
23.4063    24
23.4163    17
23.4263    22
23.4363    22
23.4463    23
23.4563    21
23.4663    18
23.4763    21
23.4863    25
23.4963    19
23.5064    26
23.5164    19
23.5264    24
23.5364    20
23.5464    24
23.5564    22
23.5664    17
23.5764    18
23.5864    23
23.5964    23
23.6064    22
23.6164    19
23.6264    17
23.6364    28
23.6464    18
23.6564    16
23.6664    22
23.6764    29
23.6864    17
23.6964    24
23.7064    19
23.7164    22
23.7264    25
23.7364    30
23.7464    23
23.7564    17
23.7664    13
23.7764    19
23.7864    18
23.7964    10
23.8064    16
23.8164    18
23.8264    15
23.8364    21
23.8464    17
23.8564    16
23.8664    23
23.8764    15
23.8864    22
23.8964    13
23.9064    16
23.9164    19
23.9264    15
23.9364    21
23.9464    23
23.9564    22
23.9664    14
23.9764    17
23.9864    12
23.9964    17
24.0064    18
24.0164    20
24.0264    17
24.0364    24
24.0464    17
24.0564    22
24.0664    25
24.0764    19
24.0864    20
24.0964    13
24.1064    29
24.1164    15
24.1264     7
24.1364    19
24.1464    20
24.1564    19
24.1664    21
24.1764    17
24.1864    12
24.1964    18
24.2064    26
24.2164    19
24.2264    20
24.2364    14
24.2464    13
24.2564    19
24.2664    17
24.2764    17
24.2864    20
24.2964    16
24.3064    14
24.3164    22
24.3264    18
24.3364    14
24.3464    21
24.3564    18
24.3664    18
24.3764    19
24.3864    17
24.3964    16
24.4064    15
24.4164    19
24.4264    13
24.4364    14
24.4464    16
24.4564    14
24.4664    17
24.4764    17
24.4864    15
24.4964    13
24.5065    17
24.5165    23
24.5265    13
24.5365    14
24.5465    18
24.5565    16
24.5665    12
24.5765    12
24.5865    14
24.5965    11
24.6065    18
24.6165    14
24.6265    13
24.6365    14
24.6465    14
24.6565    23
24.6665    15
24.6765    10
24.6865    14
24.6965     6
24.7065    20
24.7165    18
24.7265    14
24.7365    13
24.7465    17
24.7565    16
24.7665    10
24.7765    11
24.7865     9
24.7965     8
24.8065    19
24.8165    15
24.8265    11
24.8365    15
24.8465     7
24.8565    10
24.8665    15
24.8765    10
24.8865     7
24.8965    10
24.9065    16
24.9165     9
24.9265    14
24.9365    14
24.9465    19
24.9565    10
24.9665    10
24.9765    10
24.9865    14
24.9965    12
25.0065    19
25.0165    16
25.0265    10
25.0365    14
25.0465    12
25.0565     8
25.0665    12
25.0765    18
25.0865    17
25.0965    17
25.1065    14
25.1165    16
25.1265    15
25.1365    19
25.1465    12
25.1565    12
25.1665    10
25.1765    15
25.1865    11
25.1965    10
25.2065    19
25.2165    15
25.2265    13
25.2365    12
25.2465    17
25.2565    14
25.2665     7
25.2765    12
25.2865    16
25.2965    17
25.3065    11
25.3165     8
25.3265     9
25.3365    11
25.3465    12
25.3565    13
25.3665    14
25.3765    19
25.3865    16
25.3965    11
25.4065    13
25.4165     9
25.4265     8
25.4365     8
25.4465    15
25.4565    12
25.4665    15
25.4765    10
25.4865    10
25.4965    16
25.5066    11
25.5166    11
25.5266    12
25.5366    15
25.5466    11
25.5566    13
25.5666     9
25.5766    11
25.5866    14
25.5966     8
25.6066     8
25.6166    11
25.6266    15
25.6366     8
25.6466     9
25.6566     8
25.6666    11
25.6766     7
25.6866    10
25.6966     8
25.7066    17
25.7166    15
25.7266    11
25.7366    11
25.7466    12
25.7566     9
25.7666    11
25.7766    12
25.7866    12
25.7966     9
25.8066     6
25.8166     9
25.8266    10
25.8366    18
25.8466    14
25.8566     8
25.8666     9
25.8766    11
25.8866    10
25.8966     8
25.9066    13
25.9166    14
25.9266    14
25.9366    13
25.9466     6
25.9566     8
25.9666     9
25.9766    14
25.9866    14
25.9966     7
26.0066    11
26.0166    16
26.0266    11
26.0366     9
26.0466    11
26.0566     9
26.0666     8
26.0766    10
26.0866     4
26.0966    12
26.1066    11
26.1166    15
26.1266    13
26.1366    14
26.1466    10
26.1566     7
26.1666     7
26.1766     8
26.1866     7
26.1966     9
26.2066    12
26.2166    10
26.2266     7
26.2366     5
26.2466     9
26.2566    12
26.2666    12
26.2766    15
26.2866    13
26.2966    14
26.3066    12
26.3166    10
26.3266    10
26.3366    11
26.3466     9
26.3566     7
26.3666    11
26.3766     6
26.3866    13
26.3966    11
26.4066    10
26.4166    10
26.4266     7
26.4366     8
26.4466     9
26.4566    14
26.4666     9
26.4766     4
26.4866     6
26.4966    12
26.5067    17
26.5167     9
26.5267     9
26.5367     8
26.5467    10
26.5567    10
26.5667     9
26.5767     8
26.5867     6
26.5967     6
26.6067     4
26.6167     8
26.6267    11
26.6367     8
26.6467     7
26.6567     9
26.6667    12
26.6767    11
26.6867     7
26.6967    11
26.7067     6
26.7167     7
26.7267     6
26.7367    12
26.7467    13
26.7567     5
26.7667     5
26.7767     8
26.7867    11
26.7967     8
26.8067     4
26.8167    10
26.8267     6
26.8367    12
26.8467     7
26.8567     9
26.8667    12
26.8767     7
26.8867     4
26.8967     5
26.9067     6
26.9167     9
26.9267     8
26.9367     8
26.9467     5
26.9567     4
26.9667     5
26.9767     7
26.9867    12
26.9967     7
27.0067     6
27.0167     8
27.0267    12
27.0367     7
27.0467     9
27.0567     9
27.0667    11
27.0767     5
27.0867     7
27.0967    10
27.1067     9
27.1167     9
27.1267     6
27.1367    11
27.1467    11
27.1567    10
27.1667     9
27.1767     8
27.1867    12
27.1967    11
27.2067     9
27.2167     7
27.2267     5
27.2367     8
27.2467     5
27.2567     4
27.2667     2
27.2767     5
27.2867     5
27.2967     6
27.3067     7
27.3167     6
27.3267     5
27.3367     6
27.3467     5
27.3567     7
27.3667     7
27.3767     9
27.3867    11
27.3967     7
27.4067     6
27.4167     6
27.4267     7
27.4367     9
27.4467     6
27.4567     4
27.4667     6
27.4767     7
27.4867     4
27.4967     6
27.5068     4
27.5168     4
27.5268     5
27.5368     2
27.5468     2
27.5568     4
27.5668     8
27.5768     7
27.5868     6
27.5968     4
27.6068     5
27.6168     8
27.6268     6
27.6368     4
27.6468     7
27.6568     6
27.6668     7
27.6768     5
27.6868     4
27.6968     7
27.7068     6
27.7168     7
27.7268     7
27.7368     7
27.7468     9
27.7568     7
27.7668     6
27.7768     4
27.7868     6
27.7968     6
27.8068     6
27.8168     6
27.8268     5
27.8368     3
27.8468     3
27.8568     5
27.8668    10
27.8768     7
27.8868     9
27.8968     8
27.9068     7
27.9168     7
27.9268     7
27.9368     5
27.9468     4
27.9568     3
27.9668     4
27.9768     7
27.9868     7
27.9968    10
28.0068     9
28.0168     5
28.0268     4
28.0368     6
28.0468     4
28.0568     6
28.0668     6
28.0768     4
28.0868     6
28.0968     5
28.1068     6
28.1168     6
28.1268     3
28.1368     3
28.1468     9
28.1568    10
28.1668     6
28.1768     3
28.1868     3
28.1968     5
28.2068     3
28.2168     4
28.2268     5
28.2368     8
28.2468     5
28.2568     3
28.2668     5
28.2768     7
28.2868     7
28.2968     5
28.3068     5
28.3168     4
28.3268     2
28.3368     1
28.3468     6
28.3568     5
28.3668     5
28.3768     7
28.3868     5
28.3968     6
28.4068     6
28.4168     4
28.4268     3
28.4368     4
28.4468     3
28.4568     3
28.4668     4
28.4768     6
28.4868     6
28.4968     5
28.5069     6
28.5169     5
28.5269     3
28.5369     5
28.5469     7
28.5569     6
28.5669     3
28.5769     2
28.5869     2
28.5969     5
28.6069     4
28.6169     1
28.6269     2
28.6369     5
28.6469     7
28.6569     6
28.6669     4
28.6769     5
28.6869     4
28.6969     4
28.7069     4
28.7169     5
28.7269     2
28.7369     3
28.7469     5
28.7569     3
28.7669     3
28.7769     5
28.7869     4
28.7969     4
28.8069     5
28.8169     5
28.8269     5
28.8369     6
28.8469     4
28.8569     3
28.8669     3
28.8769     4
28.8869     5
28.8969     4
28.9069     3
28.9169     4
28.9269     4
28.9369     5
28.9469     6
28.9569     6
28.9669     5
28.9769     4
28.9869     3
28.9969     5
29.0069     5
29.0169     5
29.0269     4
29.0369     4
29.0469     6
29.0569     6
29.0669     4
29.0769     4
29.0869     3
29.0969     3
29.1069     6
29.1169     6
29.1269     2
29.1369     4
29.1469     3
29.1569     2
29.1669     5
29.1769     5
29.1869     3
29.1969     3
29.2069     3
29.2169     4
29.2269     3
29.2369     3
29.2469     4
29.2569     5
29.2669     7
29.2769     5
29.2869     2
29.2969     3
29.3069     5
29.3169     5
29.3269     5
29.3369     4
29.3469     4
29.3569     4
29.3669     5
29.3769     3
29.3869     2
29.3969     4
29.4069     5
29.4169     5
29.4269     3
29.4369     2
29.4469     2
29.4569     3
29.4669     4
29.4769     2
29.4869     2
29.4969     2
 29.507     3
 29.517     5
 29.527     3
 29.537     1
 29.547     2
 29.557     4
 29.567     4
 29.577     5
 29.587     2
 29.597     2
 29.607     4
 29.617     3
 29.627     3
 29.637     4
 29.647     2
 29.657     2
 29.667     3
 29.677     2
 29.687     4
 29.697     5
 29.707     4
 29.717     4
 29.727     2
 29.737     2
 29.747     2
 29.757     3
 29.767     4
 29.777     3
 29.787     2
 29.797     1
 29.807     2
 29.817     2
 29.827     4
 29.837     3
 29.847     3
 29.857     2
 29.867     2
 29.877     4
 29.887     4
 29.897     3
 29.907     4
 29.917     6
 29.927     4
 29.937     2
 29.947     2
 29.957     2
 29.967     4
 29.977     3
 29.987     4
 29.997     6
 30.007     4
 30.017     3
 30.027     2
 30.037     3
 30.047     3
 30.057     2
 30.067     4
 30.077     6
 30.087     5
 30.097     2
 30.107     3
 30.117     3
 30.127     4
 30.137     5
 30.147     4
 30.157     4
 30.167     3
 30.177     2
 30.187     2
 30.197     3
 30.207     4
 30.217     2
 30.227     1
 30.237     3
 30.247     4
 30.257     2
 30.267     2
 30.277     1
 30.287     2
 30.297     2
 30.307     2
 30.317     4
 30.327     4
 30.337     3
 30.347     5
 30.357     4
 30.367     5
 30.377     6
 30.387     2
 30.397     1
 30.407     2
 30.417     3
 30.427     2
 30.437     2
 30.447     4
 30.457     4
 30.467     4
 30.477     2
 30.487     2
 30.497     2
30.5071     2
30.5171     3
30.5271     2
30.5371     2
30.5471     3
30.5571     3
30.5671     1
30.5771     0
30.5871     2
30.5971     2
30.6071     1
30.6171     2
30.6271     3
30.6371     1
30.6471     3
30.6571     3
30.6671     1
30.6771     3
30.6871     5
30.6971     3
30.7071     2
30.7171     2
30.7271     1
30.7371     2
30.7471     1
30.7571     2
30.7671     4
30.7771     2
30.7871     1
30.7971     2
30.8071     2
30.8171     2
30.8271     2
30.8371     4
30.8471     1
30.8571     2
30.8671     4
30.8771     6
30.8871     6
30.8971     3
30.9071     2
30.9171     2
30.9271     2
30.9371     2
30.9471     1
30.9571     1
30.9671     3
30.9771     4
30.9871     2
30.9971     3
31.0071     1
31.0171     3
31.0271     1
31.0371     2
31.0471     1
31.0571     1
31.0671     1
31.0771     2
31.0871     3
31.0971     4
31.1071     3
31.1171     1
31.1271     2
31.1371     2
31.1471     1
31.1571     2
31.1671     2
31.1771     2
31.1871     1
31.1971     2
31.2071     3
31.2171     4
31.2271     3
31.2371     3
31.2471     0
31.2571     1
31.2671     1
31.2771     2
31.2871     3
31.2971     3
31.3071     1
31.3171     2
31.3271     2
31.3371     2
31.3471     1
31.3571     3
31.3671     3
31.3771     5
31.3871     2
31.3971     1
31.4071     1
31.4171     2
31.4271     3
31.4371     2
31.4471     3
31.4571     2
31.4671     3
31.4771     2
31.4871     3
31.4971     3
31.5072     3
31.5172     3
31.5272     4
31.5372     4
31.5472     4
31.5572     3
31.5672     0
31.5772     0
31.5872     1
31.5972     2
31.6072     2
31.6172     3
31.6272     2
31.6372     1
31.6472     2
31.6572     2
31.6672     1
31.6772     2
31.6872     2
31.6972     3
31.7072     2
31.7172     1
31.7272     2
31.7372     2
31.7472     2
31.7572     1
31.7672     1
31.7772     1
31.7872     1
31.7972     4
31.8072     4
31.8172     2
31.8272     2
31.8372     3
31.8472     2
31.8572     3
31.8672     1
31.8772     1
31.8872     3
31.8972     3
31.9072     3
31.9172     3
31.9272     0
31.9372     1
31.9472     1
31.9572     2
31.9672     3
31.9772     3
31.9872     2
31.9972     3
32.0072     4
32.0172     4
32.0272     1
32.0372     1
32.0472     2
32.0572     2
32.0672     1
32.0772     1
32.0872     1
32.0972     2
32.1072     3
32.1172     3
32.1272     1
32.1372     1
32.1472     1
32.1572     2
32.1672     1
32.1772     2
32.1872     3
32.1972     4
32.2072     5
32.2172     3
32.2272     3
32.2372     2
32.2472     3
32.2572     2
32.2672     2
32.2772     2
32.2872     1
32.2972     1
32.3072     2
32.3172     1
32.3272     2
32.3372     1
32.3472     1
32.3572     3
32.3672     4
32.3772     1
32.3872     2
32.3972     2
32.4072     0
32.4172     0
32.4272     2
32.4372     3
32.4472     2
32.4572     1
32.4672     2
32.4772     3
32.4872     2
32.4972     3
32.5073     2
32.5173     2
32.5273     3
32.5373     3
32.5473     2
32.5573     1
32.5673     1
32.5773     2
32.5873     1
32.5973     2
32.6073     3
32.6173     1
32.6273     2
32.6373     2
32.6473     2
32.6573     1
32.6673     2
32.6773     2
32.6873     1
32.6973     1
32.7073     3
32.7173     2
32.7273     1
32.7373     1
32.7473     3
32.7573     3
32.7673     3
32.7773     3
32.7873     1
32.7973     1
32.8073     0
32.8173     1
32.8273     2
32.8373     1
32.8473     1
32.8573     1
32.8673     0
32.8773     1
32.8873     1
32.8973     1
32.9073     1
32.9173     2
32.9273     2
32.9373     2
32.9473     0
32.9573     0
32.9673     0
32.9773     1
32.9873     1
32.9973     2
33.0073     3
33.0173     1
33.0273     1
33.0373     2
33.0473     1
33.0573     1
33.0673     0
33.0773     2
33.0873     2
33.0973     1
33.1073     2
33.1173     2
33.1273     2
33.1373     3
33.1473     2
33.1573     1
33.1673     1
33.1773     1
33.1873     1
33.1973     2
33.2073     1
33.2173     1
33.2273     2
33.2373     1
33.2473     1
33.2573     1
33.2673     1
33.2773     1
33.2873     2
33.2973     2
33.3073     2
33.3173     2
33.3273     1
33.3373     2
33.3473     2
33.3573     1
33.3673     3
33.3773     1
33.3873     0
33.3973     1
33.4073     0
33.4173     1
33.4273     2
33.4373     1
33.4473     1
33.4573     2
33.4673     2
33.4773     1
33.4873     0
33.4973     1
33.5074     0
33.5174     0
33.5274     1
33.5374     0
33.5474     2
33.5574     2
33.5674     1
33.5774     0
33.5874     1
33.5974     1
33.6074     1
33.6174     2
33.6274     2
33.6374     4
33.6474     4
33.6574     1
33.6674     0
33.6774     1
33.6874     1
33.6974     0
33.7074     2
33.7174     3
33.7274     1
33.7374     0
33.7474     0
33.7574     1
33.7674     1
33.7774     1
33.7874     1
33.7974     2
33.8074     1
33.8174     1
33.8274     1
33.8374     1
33.8474     1
33.8574     1
33.8674     0
33.8774     1
33.8874     0
33.8974     0
33.9074     0
33.9174     1
33.9274     1
33.9374     1
33.9474     1
33.9574     0
33.9674     1
33.9774     1
33.9874     0
33.9974     0
34.0074     1
34.0174     2
34.0274     1
34.0374     0
34.0474     0
34.0574     0
34.0674     0
34.0774     0
34.0874     1
34.0974     1
34.1074     0
34.1174     1
34.1274     2
34.1374     2
34.1474     2
34.1574     1
34.1674     2
34.1774     1
34.1874     1
34.1974     1
34.2074     2
34.2174     0
34.2274     0
34.2374     0
34.2474     1
34.2574     2
34.2674     1
34.2774     0
34.2874     1
34.2974     0
34.3074     1
34.3174     1
34.3274     1
34.3374     1
34.3474     0
34.3574     1
34.3674     1
34.3774     0
34.3874     1
34.3974     2
34.4074     2
34.4174     1
34.4274     1
34.4374     0
34.4474     0
34.4574     1
34.4674     1
34.4774     1
34.4874     1
34.4974     3
34.5075     0
34.5175     1
34.5275     2
34.5375     3
34.5475     3
34.5575     1
34.5675     1
34.5775     2
34.5875     1
34.5975     0
34.6075     1
34.6175     0
34.6275     0
34.6375     0
34.6475     1
34.6575     1
34.6675     1
34.6775     0
34.6875     1
34.6975     1
34.7075     0
34.7175     0
34.7275     1
34.7375     1
34.7475     0
34.7575     1
34.7675     1
34.7775     1
34.7875     1
34.7975     1
34.8075     2
34.8175     1
34.8275     1
34.8375     1
34.8475     0
34.8575     0
34.8675     0
34.8775     1
34.8875     1
34.8975     0
34.9075     2
34.9175     2
34.9275     1
34.9375     0
34.9475     1
34.9575     1
34.9675     1
34.9775     1
34.9875     2
34.9975     1
35.0075     0
35.0175     1
35.0275     0
35.0375     1
35.0475     1
35.0575     0
35.0675     1
35.0775     2
35.0875     0
35.0975     2
35.1075     2
35.1175     0
35.1275     1
35.1375     1
35.1475     1
35.1575     1
35.1675     0
35.1775     0
35.1875     0
35.1975     1
35.2075     1
35.2175     1
35.2275     2
35.2375     1
35.2475     1
35.2575     2
35.2675     1
35.2775     1
35.2875     0
35.2975     0
35.3075     0
35.3175     0
35.3275     0
35.3375     0
35.3475     1
35.3575     1
35.3675     1
35.3775     2
35.3875     0
35.3975     0
35.4075     0
35.4175     0
35.4275     0
35.4375     1
35.4475     2
35.4575     1
35.4675     1
35.4775     2
35.4875     2
35.4975     1
35.5076     0
35.5176     1
35.5276     1
35.5376     1
35.5476     0
35.5576     0
35.5676     1
35.5776     1
35.5876     1
35.5976     0
35.6076     0
35.6176     0
35.6276     0
35.6376     1
35.6476     0
35.6576     1
35.6676     0
35.6776     1
35.6876     1
35.6976     0
35.7076     1
35.7176     0
35.7276     1
35.7376     0
35.7476     1
35.7576     0
35.7676     1
35.7776     0
35.7876     1
35.7976     1
35.8076     2
35.8176     0
35.8276     1
35.8376     0
35.8476     0
35.8576     0
35.8676     1
35.8776     0
35.8876     0
35.8976     0
35.9076     0
35.9176     0
35.9276     1
35.9376     1
35.9476     0
35.9576     1
35.9676     1
35.9776     0
35.9876     0
35.9976     0
36.0076     1
36.0176     2
36.0276     2
36.0376     1
36.0476     1
36.0576     0
36.0676     2
36.0776     2
36.0876     1
36.0976     0
36.1076     1
36.1176     1
36.1276     1
36.1376     1
36.1476     1
36.1576     0
36.1676     0
36.1776     1
36.1876     1
36.1976     1
36.2076     1
36.2176     0
36.2276     0
36.2376     1
36.2476     1
36.2576     1
36.2676     1
36.2776     1
36.2876     1
36.2976     1
36.3076     1
36.3176     2
36.3276     1
36.3376     1
36.3476     1
36.3576     0
36.3676     1
36.3776     1
36.3876     1
36.3976     0
36.4076     1
36.4176     0
36.4276     0
36.4376     1
36.4476     1
36.4576     1
36.4676     0
36.4776     0
36.4876     0
36.4976     0
36.5077     1
36.5177     2
36.5277     1
36.5377     0
36.5477     1
36.5577     0
36.5677     0
36.5777     0
36.5877     0
36.5977     0
36.6077     0
36.6177     1
36.6277     2
36.6377     2
36.6477     1
36.6577     1
36.6677     1
36.6777     1
36.6877     1
36.6977     0
36.7077     0
36.7177     0
36.7277     1
36.7377     1
36.7477     1
36.7577     1
36.7677     0
36.7777     1
36.7877     0
36.7977     1
36.8077     1
36.8177     0
36.8277     1
36.8377     1
36.8477     1
36.8577     0
36.8677     0
36.8777     0
36.8877     1
36.8977     1
36.9077     0
36.9177     1
36.9277     1
36.9377     2
36.9477     1
36.9577     0
36.9677     1
36.9777     1
36.9877     1
36.9977     0
37.0077     0
37.0177     0
37.0277     0
37.0377     0
37.0477     0
37.0577     0
37.0677     0
37.0777     0
37.0877     0
37.0977     1
37.1077     0
37.1177     0
37.1277     0
37.1377     0
37.1477     1
37.1577     1
37.1677     0
37.1777     1
37.1877     0
37.1977     1
37.2077     1
37.2177     1
37.2277     0
37.2377     0
37.2477     0
37.2577     1
37.2677     1
37.2777     0
37.2877     1
37.2977     1
37.3077     0
37.3177     0
37.3277     0
37.3377     1
37.3477     0
37.3577     1
37.3677     0
37.3777     0
37.3877     0
37.3977     0
37.4077     0
37.4177     1
37.4277     0
37.4377     0
37.4477     0
37.4577     0
37.4677     0
37.4777     1
37.4877     0
37.4977     1
37.5078     0
37.5178     0
37.5278     0
37.5378     0
37.5478     0
37.5578     1
37.5678     0
37.5778     0
37.5878     0
37.5978     0
37.6078     1
37.6178     2
37.6278     1
37.6378     1
37.6478     0
37.6578     1
37.6678     0
37.6778     1
37.6878     1
37.6978     0
37.7078     1
37.7178     1
37.7278     1
37.7378     0
37.7478     0
37.7578     0
37.7678     0
37.7778     0
37.7878     1
37.7978     1
37.8078     0
37.8178     1
37.8278     1
37.8378     1
37.8478     2
37.8578     0
37.8678     1
37.8778     0
37.8878     0
37.8978     1
37.9078     0
37.9178     1
37.9278     1
37.9378     0
37.9478     0
37.9578     0
37.9678     1
37.9778     1
37.9878     1
37.9978     1
38.0078     0
38.0178     0
38.0278     0
38.0378     1
38.0478     0
38.0578     1
38.0678     0
38.0778     1
38.0878     0
38.0978     0
38.1078     0
38.1178     0
38.1278     0
38.1378     1
38.1478     1
38.1578     1
38.1678     0
38.1778     0
38.1878     1
38.1978     1
38.2078     0
38.2178     0
38.2278     0
38.2378     0
38.2478     1
38.2578     0
38.2678     1
38.2778     1
38.2878     2
38.2978     2
38.3078     0
38.3178     0
38.3278     1
38.3378     0
38.3478     0
38.3578     0
38.3678     1
38.3778     1
38.3878     0
38.3978     0
38.4078     0
38.4178     0
38.4278     1
38.4378     0
38.4478     0
38.4578     1
38.4678     0
38.4778     0
38.4878     0
38.4978     0
38.5079     0
38.5179     1
38.5279     0
38.5379     1
38.5479     1
38.5579     1
38.5679     1
38.5779     0
38.5879     0
38.5979     0
38.6079     0
38.6179     1
38.6279     1
38.6379     0
38.6479     0
38.6579     0
38.6679     1
38.6779     0
38.6879     0
38.6979     0
38.7079     0
38.7179     0
38.7279     0
38.7379     0
38.7479     0
38.7579     0
38.7679     0
38.7779     0
38.7879     0
38.7979     0
38.8079     1
38.8179     0
38.8279     0
38.8379     1
38.8479     0
38.8579     0
38.8679     0
38.8779     0
38.8879     0
38.8979     0
38.9079     0
38.9179     1
38.9279     0
38.9379     1
38.9479     1
38.9579     1
38.9679     0
38.9779     0
38.9879     0
38.9979     0
39.0079     0
39.0179     0
39.0279     0
39.0379     1
39.0479     1
39.0579     0
39.0679     1
39.0779     0
39.0879     1
39.0979     0
39.1079     0
39.1179     0
39.1279     0
39.1379     1
39.1479     0
39.1579     0
39.1679     0
39.1779     0
39.1879     0
39.1979     0
39.2079     0
39.2179     0
39.2279     0
39.2379     0
39.2479     0
39.2579     0
39.2679     0
39.2779     1
39.2879     1
39.2979     0
39.3079     0
39.3179     0
39.3279     1
39.3379     0
39.3479     0
39.3579     0
39.3679     0
39.3779     0
39.3879     0
39.3979     0
39.4079     0
39.4179     1
39.4279     0
39.4379     1
39.4479     0
39.4579     0
39.4679     0
39.4779     0
39.4879     0
39.4979     0
 39.508     0
 39.518     0
 39.528     0
 39.538     0
 39.548     0
 39.558     0
 39.568     0
 39.578     0
 39.588     1
 39.598     1
 39.608     0
 39.618     0
 39.628     0
 39.638     1
 39.648     0
 39.658     0
 39.668     0
 39.678     0
 39.688     1
 39.698     0
 39.708     0
 39.718     0
 39.728     0
 39.738     0
 39.748     0
 39.758     0
 39.768     1
 39.778     0
 39.788     1
 39.798     0
 39.808     0
 39.818     0
 39.828     0
 39.838     1
 39.848     1
 39.858     0
 39.868     0
 39.878     0
 39.888     0
 39.898     0
 39.908     0
 39.918     0
 39.928     0
 39.938     0
 39.948     0
 39.958     1
 39.968     0
 39.978     0
 39.988     1
 39.998     0
