Bruker Nano GmbH Berlin, Germany
Esprit 1.9

Date: 4/5/2021 6:24:37 PM
Real time: 31456
Life time: 29994
Pulse density: 23166


Detector type: XFlash 430
Window type: Custom type
Detector thickness: 0.45
Si dead layer:0.029

Calibration, lin.: 10.001
Calibration, abs.: -956.096
Mn FWHM: 143.607
Fano factor: 0.114
Channels: 4096

Energy Counts
-0.9561     0
-0.9461     0
-0.9361     0
-0.9261     0
-0.9161     0
-0.9061     0
-0.8961     0
-0.8861     0
-0.8761     0
-0.8661     0
-0.8561     0
-0.8461     0
-0.8361     0
-0.8261     0
-0.8161     0
-0.8061     0
-0.7961     0
-0.7861     0
-0.7761     0
-0.7661     0
-0.7561     0
-0.7461     0
-0.7361     0
-0.7261     0
-0.7161     0
-0.7061     0
-0.6961     0
-0.6861     0
-0.6761     0
-0.6661     0
-0.6561     0
-0.6461     0
-0.6361     0
-0.6261     0
-0.6161     0
-0.6061     0
-0.5961     0
-0.5861     0
-0.5761     0
-0.5661     0
-0.5561     0
-0.5461     0
-0.5361     0
-0.5261     0
-0.5161     0
-0.5061     0
 -0.496     0
 -0.486     0
 -0.476     0
 -0.466     0
 -0.456     0
 -0.446     0
 -0.436     0
 -0.426     0
 -0.416     0
 -0.406     0
 -0.396     0
 -0.386     0
 -0.376     0
 -0.366     0
 -0.356     0
 -0.346     0
 -0.336     0
 -0.326     0
 -0.316     0
 -0.306     0
 -0.296     0
 -0.286     0
 -0.276     0
 -0.266     1
 -0.256     0
 -0.246     0
 -0.236     1
 -0.226     3
 -0.216     0
 -0.206     5
 -0.196     3
 -0.186     2
 -0.176     3
 -0.166     2
 -0.156     3
 -0.146     3
 -0.136    13
 -0.126    37
 -0.116    84
 -0.106   216
 -0.096   532
 -0.086  1332
 -0.076  2765
 -0.066  5177
 -0.056  9024
 -0.046 14184
 -0.036 20748
 -0.026 26981
 -0.016 32298
 -0.006 35598
  0.004 35483
  0.014 32336
  0.024 27129
  0.034 20620
  0.044 14479
  0.054  9152
  0.064  5344
  0.074  2719
  0.084  1356
  0.094   603
  0.104   245
  0.114    83
  0.124    31
  0.134    13
  0.144     2
  0.154     1
  0.164     1
  0.174     0
  0.184     1
  0.194     1
  0.204     1
  0.214     0
  0.224    -1
  0.234     0
  0.244     0
  0.254    -2
  0.264     1
  0.274     0
  0.284    -1
  0.294    -2
  0.304    12
  0.314    56
  0.324    41
  0.334    38
  0.344    34
  0.354    32
  0.364    37
  0.374    51
  0.384    42
  0.394    34
  0.404    32
  0.414    27
  0.424    36
  0.434    27
  0.444    33
  0.454    35
  0.464    29
  0.474    34
  0.484    44
  0.494    29
 0.5041    29
 0.5141    29
 0.5241    42
 0.5341    28
 0.5441    36
 0.5541    35
 0.5641    30
 0.5741    25
 0.5841    31
 0.5941    32
 0.6041    41
 0.6141    25
 0.6241    38
 0.6341    38
 0.6441    30
 0.6541    29
 0.6641    30
 0.6741    33
 0.6841    39
 0.6941    33
 0.7041    34
 0.7141    25
 0.7241    30
 0.7341    28
 0.7441    31
 0.7541    32
 0.7641    22
 0.7741    37
 0.7841    27
 0.7941    31
 0.8041    26
 0.8141    24
 0.8241    28
 0.8341    28
 0.8441    20
 0.8541    33
 0.8641    34
 0.8741    26
 0.8841    40
 0.8941    35
 0.9041    40
 0.9141    37
 0.9241    26
 0.9341    34
 0.9441    30
 0.9541    30
 0.9641    33
 0.9741    24
 0.9841    21
 0.9941    27
 1.0041    30
 1.0141    32
 1.0241    27
 1.0341    24
 1.0441    22
 1.0541    14
 1.0641    15
 1.0741    24
 1.0841    26
 1.0941    28
 1.1041    21
 1.1141    35
 1.1241    23
 1.1341    27
 1.1441    22
 1.1541    24
 1.1641    26
 1.1741    20
 1.1841    24
 1.1941    25
 1.2041    30
 1.2141    24
 1.2241    28
 1.2341    30
 1.2441    22
 1.2541    19
 1.2641    20
 1.2741    23
 1.2841    19
 1.2941    18
 1.3041    23
 1.3141    19
 1.3241    20
 1.3341    22
 1.3441    17
 1.3541    15
 1.3641    17
 1.3741    14
 1.3841     9
 1.3941    13
 1.4041    20
 1.4141    22
 1.4241    19
 1.4341    17
 1.4441    17
 1.4541    21
 1.4641    11
 1.4741    13
 1.4841    15
 1.4941    14
 1.5042    18
 1.5142    23
 1.5242    19
 1.5342    12
 1.5442    15
 1.5542    10
 1.5642     7
 1.5742    11
 1.5842    13
 1.5942    25
 1.6042    14
 1.6142    13
 1.6242    10
 1.6342    15
 1.6442    13
 1.6542    11
 1.6642     9
 1.6742    14
 1.6842    12
 1.6942    15
 1.7042    12
 1.7142    12
 1.7242    10
 1.7342    14
 1.7442    11
 1.7542    11
 1.7642    14
 1.7742    13
 1.7842    19
 1.7942    11
 1.8042     9
 1.8142    10
 1.8242    12
 1.8342    13
 1.8442    15
 1.8542    12
 1.8642     8
 1.8742    17
 1.8842    18
 1.8942    14
 1.9042    11
 1.9142     9
 1.9242    10
 1.9342    12
 1.9442    20
 1.9542    35
 1.9642    35
 1.9742    39
 1.9842    56
 1.9942    46
 2.0042    55
 2.0142    57
 2.0242    65
 2.0342    49
 2.0442    50
 2.0542    37
 2.0642    40
 2.0742    27
 2.0842    31
 2.0942    19
 2.1042    20
 2.1142    15
 2.1242    20
 2.1342    14
 2.1442    11
 2.1542    13
 2.1642    11
 2.1742    14
 2.1842    18
 2.1942    14
 2.2042    19
 2.2142    15
 2.2242    14
 2.2342    21
 2.2442    37
 2.2542    44
 2.2642    62
 2.2742    43
 2.2842    60
 2.2942    61
 2.3042    64
 2.3142    75
 2.3242    73
 2.3342    75
 2.3442    52
 2.3542    48
 2.3642    37
 2.3742    28
 2.3842    25
 2.3942    22
 2.4042    18
 2.4142    12
 2.4242    16
 2.4342    18
 2.4442    10
 2.4542     9
 2.4642    10
 2.4742    13
 2.4842    19
 2.4942    13
 2.5043    14
 2.5143    12
 2.5243     7
 2.5343    13
 2.5443    17
 2.5543    23
 2.5643    20
 2.5743    17
 2.5843    17
 2.5943    21
 2.6043    26
 2.6143    33
 2.6243    30
 2.6343    31
 2.6443    35
 2.6543    27
 2.6643    38
 2.6743    35
 2.6843    32
 2.6943    38
 2.7043    36
 2.7143    34
 2.7243    37
 2.7343    24
 2.7443    29
 2.7543    25
 2.7643    19
 2.7743    22
 2.7843    18
 2.7943    26
 2.8043    32
 2.8143    46
 2.8243    44
 2.8343    52
 2.8443    58
 2.8543    72
 2.8643    93
 2.8743   102
 2.8843   139
 2.8943   194
 2.9043   251
 2.9143   281
 2.9243   319
 2.9343   380
 2.9443   437
 2.9543   441
 2.9643   420
 2.9743   419
 2.9843   402
 2.9943   356
 3.0043   324
 3.0143   266
 3.0243   217
 3.0343   164
 3.0443   108
 3.0543    86
 3.0643    62
 3.0743    44
 3.0843    37
 3.0943    33
 3.1043    26
 3.1143    31
 3.1243    34
 3.1343    32
 3.1443    37
 3.1543    46
 3.1643    53
 3.1743    51
 3.1843    66
 3.1943    81
 3.2043    93
 3.2143   108
 3.2243   120
 3.2343   158
 3.2443   195
 3.2543   232
 3.2643   271
 3.2743   341
 3.2843   356
 3.2943   435
 3.3043   462
 3.3143   513
 3.3243   488
 3.3343   441
 3.3443   414
 3.3543   387
 3.3643   332
 3.3743   268
 3.3843   210
 3.3943   175
 3.4043   125
 3.4143    89
 3.4243    61
 3.4343    46
 3.4443    28
 3.4543    24
 3.4643    21
 3.4743    19
 3.4843    25
 3.4943    42
 3.5044    38
 3.5144    56
 3.5244    66
 3.5344    77
 3.5444   119
 3.5544   175
 3.5644   221
 3.5744   327
 3.5844   464
 3.5944   641
 3.6044   894
 3.6144  1210
 3.6244  1522
 3.6344  1925
 3.6444  2389
 3.6544  2784
 3.6644  3197
 3.6744  3538
 3.6844  3683
 3.6944  3821
 3.7044  3833
 3.7144  3672
 3.7244  3388
 3.7344  2932
 3.7444  2562
 3.7544  2133
 3.7644  1635
 3.7744  1237
 3.7844   925
 3.7944   669
 3.8044   466
 3.8144   323
 3.8244   212
 3.8344   152
 3.8444   111
 3.8544    75
 3.8644    66
 3.8744    62
 3.8844    78
 3.8944    91
 3.9044   116
 3.9144   142
 3.9244   167
 3.9344   209
 3.9444   269
 3.9544   325
 3.9644   412
 3.9744   483
 3.9844   560
 3.9944   606
 4.0044   599
 4.0144   652
 4.0244   695
 4.0344   641
 4.0444   600
 4.0544   509
 4.0644   470
 4.0744   397
 4.0844   325
 4.0944   272
 4.1044   215
 4.1144   165
 4.1244   103
 4.1344    70
 4.1444    54
 4.1544    40
 4.1644    39
 4.1744    27
 4.1844    22
 4.1944    13
 4.2044     8
 4.2144     8
 4.2244    12
 4.2344    13
 4.2444    14
 4.2544    10
 4.2644    13
 4.2744    14
 4.2844    13
 4.2944    16
 4.3044    21
 4.3144    22
 4.3244    19
 4.3344    31
 4.3444    44
 4.3544    62
 4.3644   100
 4.3744   128
 4.3844   199
 4.3944   291
 4.4044   410
 4.4144   559
 4.4244   764
 4.4344   966
 4.4444  1248
 4.4544  1553
 4.4644  1840
 4.4744  2134
 4.4844  2394
 4.4944  2560
 4.5045  2764
 4.5145  2723
 4.5245  2645
 4.5345  2602
 4.5445  2417
 4.5545  2222
 4.5645  1889
 4.5745  1592
 4.5845  1282
 4.5945  1004
 4.6045   786
 4.6145   565
 4.6245   415
 4.6345   305
 4.6445   172
 4.6545   144
 4.6645   109
 4.6745    74
 4.6845    53
 4.6945    39
 4.7045    45
 4.7145    30
 4.7245    28
 4.7345    23
 4.7445    26
 4.7545    33
 4.7645    30
 4.7745    32
 4.7845    39
 4.7945    51
 4.8045    71
 4.8145    96
 4.8245    96
 4.8345   130
 4.8445   166
 4.8545   207
 4.8645   219
 4.8745   289
 4.8845   348
 4.8945   390
 4.9045   438
 4.9145   478
 4.9245   526
 4.9345   499
 4.9445   506
 4.9545   501
 4.9645   477
 4.9745   417
 4.9845   382
 4.9945   336
 5.0045   294
 5.0145   238
 5.0245   183
 5.0345   133
 5.0445   107
 5.0545    95
 5.0645    72
 5.0745    49
 5.0845    46
 5.0945    35
 5.1045    30
 5.1145    29
 5.1245    25
 5.1345    25
 5.1445    20
 5.1545    27
 5.1645    22
 5.1745    23
 5.1845    22
 5.1945    24
 5.2045    31
 5.2145    17
 5.2245    20
 5.2345    29
 5.2445    23
 5.2545    20
 5.2645    21
 5.2745    24
 5.2845    21
 5.2945    25
 5.3045    18
 5.3145    28
 5.3245    28
 5.3345    27
 5.3445    27
 5.3545    31
 5.3645    34
 5.3745    29
 5.3845    31
 5.3945    40
 5.4045    43
 5.4145    34
 5.4245    34
 5.4345    40
 5.4445    36
 5.4545    38
 5.4645    41
 5.4745    27
 5.4845    37
 5.4945    37
 5.5046    41
 5.5146    31
 5.5246    31
 5.5346    34
 5.5446    45
 5.5546    36
 5.5646    38
 5.5746    35
 5.5846    29
 5.5946    43
 5.6046    42
 5.6146    28
 5.6246    41
 5.6346    37
 5.6446    38
 5.6546    31
 5.6646    38
 5.6746    43
 5.6846    28
 5.6946    36
 5.7046    29
 5.7146    37
 5.7246    36
 5.7346    43
 5.7446    40
 5.7546    34
 5.7646    41
 5.7746    34
 5.7846    48
 5.7946    45
 5.8046    49
 5.8146    45
 5.8246    41
 5.8346    60
 5.8446    66
 5.8546    66
 5.8646    54
 5.8746    45
 5.8846    65
 5.8946    68
 5.9046    63
 5.9146    62
 5.9246    63
 5.9346    53
 5.9446    58
 5.9546    64
 5.9646    62
 5.9746    61
 5.9846    63
 5.9946    58
 6.0046    48
 6.0146    53
 6.0246    42
 6.0346    45
 6.0446    54
 6.0546    53
 6.0646    47
 6.0746    48
 6.0846    50
 6.0946    50
 6.1046    51
 6.1146    50
 6.1246    54
 6.1346    63
 6.1446    50
 6.1546    46
 6.1646    46
 6.1746    62
 6.1846    65
 6.1946    61
 6.2046    51
 6.2146    71
 6.2246    85
 6.2346    75
 6.2446    92
 6.2546    96
 6.2646    91
 6.2746   118
 6.2846   138
 6.2946   175
 6.3046   206
 6.3146   278
 6.3246   300
 6.3346   358
 6.3446   414
 6.3546   480
 6.3646   552
 6.3746   598
 6.3846   649
 6.3946   683
 6.4046   633
 6.4146   655
 6.4246   644
 6.4346   600
 6.4446   590
 6.4546   549
 6.4646   464
 6.4746   356
 6.4846   321
 6.4946   307
 6.5047   222
 6.5147   231
 6.5247   175
 6.5347   164
 6.5447   131
 6.5547   105
 6.5647    86
 6.5747    74
 6.5847    69
 6.5947    74
 6.6047    72
 6.6147    69
 6.6247    72
 6.6347    73
 6.6447    66
 6.6547    80
 6.6647    70
 6.6747    65
 6.6847    68
 6.6947    71
 6.7047    77
 6.7147    87
 6.7247    71
 6.7347    71
 6.7447    79
 6.7547    78
 6.7647    78
 6.7747    79
 6.7847    69
 6.7947    65
 6.8047    78
 6.8147    87
 6.8247    86
 6.8347    73
 6.8447    75
 6.8547    81
 6.8647    88
 6.8747    85
 6.8847    92
 6.8947    82
 6.9047    92
 6.9147    85
 6.9247    80
 6.9347    99
 6.9447   102
 6.9547   110
 6.9647   116
 6.9747   108
 6.9847   124
 6.9947   147
 7.0047   145
 7.0147   151
 7.0247   176
 7.0347   180
 7.0447   173
 7.0547   171
 7.0647   177
 7.0747   172
 7.0847   177
 7.0947   171
 7.1047   155
 7.1147   154
 7.1247   152
 7.1347   158
 7.1447   146
 7.1547   117
 7.1647   115
 7.1747   110
 7.1847    96
 7.1947   109
 7.2047   114
 7.2147   108
 7.2247    92
 7.2347    93
 7.2447   107
 7.2547   118
 7.2647   100
 7.2747   104
 7.2847    97
 7.2947    97
 7.3047   101
 7.3147   109
 7.3247   116
 7.3347   116
 7.3447   108
 7.3547   111
 7.3647   123
 7.3747   139
 7.3847   150
 7.3947   146
 7.4047   137
 7.4147   147
 7.4247   154
 7.4347   168
 7.4447   185
 7.4547   182
 7.4647   174
 7.4747   195
 7.4847   189
 7.4947   195
 7.5048   183
 7.5148   184
 7.5248   188
 7.5348   184
 7.5448   165
 7.5548   161
 7.5648   160
 7.5748   149
 7.5848   139
 7.5948   133
 7.6048   137
 7.6148   134
 7.6248   126
 7.6348   122
 7.6448   122
 7.6548   132
 7.6648   128
 7.6748   118
 7.6848   125
 7.6948   132
 7.7048   130
 7.7148   143
 7.7248   141
 7.7348   142
 7.7448   149
 7.7548   147
 7.7648   148
 7.7748   141
 7.7848   129
 7.7948   136
 7.8048   146
 7.8148   143
 7.8248   151
 7.8348   156
 7.8448   153
 7.8548   143
 7.8648   159
 7.8748   163
 7.8848   167
 7.8948   165
 7.9048   159
 7.9148   147
 7.9248   144
 7.9348   142
 7.9448   159
 7.9548   156
 7.9648   143
 7.9748   152
 7.9848   165
 7.9948   159
 8.0048   167
 8.0148   176
 8.0248   174
 8.0348   180
 8.0448   168
 8.0548   168
 8.0648   191
 8.0748   187
 8.0848   182
 8.0948   195
 8.1048   183
 8.1148   181
 8.1248   210
 8.1348   208
 8.1448   191
 8.1548   174
 8.1648   190
 8.1748   197
 8.1848   197
 8.1948   205
 8.2048   201
 8.2148   199
 8.2248   201
 8.2348   190
 8.2448   185
 8.2548   202
 8.2648   202
 8.2748   190
 8.2848   190
 8.2948   186
 8.3048   181
 8.3148   191
 8.3248   198
 8.3348   204
 8.3448   206
 8.3548   204
 8.3648   199
 8.3748   211
 8.3848   210
 8.3948   200
 8.4048   187
 8.4148   192
 8.4248   208
 8.4348   209
 8.4448   204
 8.4548   205
 8.4648   205
 8.4748   207
 8.4848   216
 8.4948   211
 8.5049   219
 8.5149   231
 8.5249   228
 8.5349   216
 8.5449   230
 8.5549   234
 8.5649   228
 8.5749   244
 8.5849   245
 8.5949   246
 8.6049   251
 8.6149   258
 8.6249   245
 8.6349   249
 8.6449   263
 8.6549   261
 8.6649   244
 8.6749   237
 8.6849   248
 8.6949   249
 8.7049   261
 8.7149   264
 8.7249   253
 8.7349   258
 8.7449   252
 8.7549   242
 8.7649   251
 8.7749   251
 8.7849   251
 8.7949   258
 8.8049   259
 8.8149   247
 8.8249   239
 8.8349   259
 8.8449   259
 8.8549   245
 8.8649   241
 8.8749   241
 8.8849   243
 8.8949   252
 8.9049   264
 8.9149   252
 8.9249   266
 8.9349   263
 8.9449   249
 8.9549   255
 8.9649   266
 8.9749   279
 8.9849   292
 8.9949   287
 9.0049   275
 9.0149   279
 9.0249   287
 9.0349   277
 9.0449   268
 9.0549   277
 9.0649   295
 9.0749   286
 9.0849   268
 9.0949   268
 9.1049   286
 9.1149   300
 9.1249   294
 9.1349   305
 9.1449   289
 9.1549   280
 9.1649   297
 9.1749   298
 9.1849   293
 9.1949   284
 9.2049   299
 9.2149   308
 9.2249   307
 9.2349   298
 9.2449   308
 9.2549   317
 9.2649   304
 9.2749   304
 9.2849   302
 9.2949   307
 9.3049   288
 9.3149   278
 9.3249   295
 9.3349   313
 9.3449   318
 9.3549   298
 9.3649   311
 9.3749   330
 9.3849   305
 9.3949   306
 9.4049   319
 9.4149   318
 9.4249   343
 9.4349   357
 9.4449   337
 9.4549   333
 9.4649   335
 9.4749   338
 9.4849   341
 9.4949   345
  9.505   356
  9.515   366
  9.525   347
  9.535   348
  9.545   344
  9.555   349
  9.565   349
  9.575   347
  9.585   354
  9.595   339
  9.605   330
  9.615   338
  9.625   343
  9.635   341
  9.645   338
  9.655   340
  9.665   348
  9.675   347
  9.685   359
  9.695   377
  9.705   354
  9.715   345
  9.725   372
  9.735   365
  9.745   351
  9.755   340
  9.765   337
  9.775   331
  9.785   342
  9.795   356
  9.805   365
  9.815   346
  9.825   363
  9.835   374
  9.845   376
  9.855   373
  9.865   360
  9.875   373
  9.885   374
  9.895   374
  9.905   362
  9.915   373
  9.925   378
  9.935   393
  9.945   375
  9.955   367
  9.965   385
  9.975   386
  9.985   372
  9.995   392
 10.005   381
 10.015   406
 10.025   388
 10.035   391
 10.045   384
 10.055   384
 10.065   393
 10.075   389
 10.085   383
 10.095   374
 10.105   380
 10.115   367
 10.125   374
 10.135   406
 10.145   406
 10.155   384
 10.165   400
 10.175   405
 10.185   393
 10.195   422
 10.205   408
 10.215   411
 10.225   413
 10.235   379
 10.245   394
 10.255   410
 10.265   393
 10.275   388
 10.285   392
 10.295   420
 10.305   427
 10.315   410
 10.325   409
 10.335   425
 10.345   417
 10.355   400
 10.365   419
 10.375   422
 10.385   430
 10.395   429
 10.405   435
 10.415   429
 10.425   424
 10.435   433
 10.445   416
 10.455   439
 10.465   437
 10.475   444
 10.485   443
 10.495   418
10.5051   405
10.5151   445
10.5251   441
10.5351   458
10.5451   465
10.5551   473
10.5651   459
10.5751   459
10.5851   468
10.5951   464
10.6051   434
10.6151   468
10.6251   458
10.6351   434
10.6451   460
10.6551   445
10.6651   447
10.6751   446
10.6851   490
10.6951   470
10.7051   471
10.7151   461
10.7251   447
10.7351   450
10.7451   461
10.7551   481
10.7651   457
10.7751   433
10.7851   459
10.7951   475
10.8051   475
10.8151   444
10.8251   458
10.8351   450
10.8451   470
10.8551   495
10.8651   477
10.8751   452
10.8851   475
10.8951   474
10.9051   462
10.9151   461
10.9251   463
10.9351   461
10.9451   478
10.9551   464
10.9651   446
10.9751   470
10.9851   488
10.9951   511
11.0051   484
11.0151   492
11.0251   450
11.0351   472
11.0451   468
11.0551   453
11.0651   471
11.0751   475
11.0851   487
11.0951   460
11.1051   496
11.1151   513
11.1251   483
11.1351   507
11.1451   501
11.1551   529
11.1651   508
11.1751   466
11.1851   469
11.1951   488
11.2051   485
11.2151   493
11.2251   495
11.2351   514
11.2451   490
11.2551   476
11.2651   508
11.2751   501
11.2851   534
11.2951   499
11.3051   505
11.3151   506
11.3251   470
11.3351   478
11.3451   497
11.3551   532
11.3651   511
11.3751   522
11.3851   496
11.3951   505
11.4051   514
11.4151   504
11.4251   516
11.4351   533
11.4451   519
11.4551   493
11.4651   502
11.4751   520
11.4851   555
11.4951   472
11.5052   473
11.5152   502
11.5252   529
11.5352   495
11.5452   505
11.5552   483
11.5652   502
11.5752   488
11.5852   522
11.5952   519
11.6052   499
11.6152   538
11.6252   505
11.6352   515
11.6452   507
11.6552   508
11.6652   505
11.6752   522
11.6852   519
11.6952   527
11.7052   482
11.7152   478
11.7252   524
11.7352   521
11.7452   506
11.7552   516
11.7652   521
11.7752   503
11.7852   522
11.7952   544
11.8052   503
11.8152   491
11.8252   496
11.8352   547
11.8452   587
11.8552   537
11.8652   541
11.8752   547
11.8852   533
11.8952   483
11.9052   540
11.9152   528
11.9252   546
11.9352   528
11.9452   546
11.9552   510
11.9652   559
11.9752   541
11.9852   523
11.9952   545
12.0052   550
12.0152   537
12.0252   538
12.0352   509
12.0452   510
12.0552   547
12.0652   505
12.0752   514
12.0852   536
12.0952   548
12.1052   491
12.1152   542
12.1252   564
12.1352   484
12.1452   514
12.1552   492
12.1652   483
12.1752   510
12.1852   498
12.1952   497
12.2052   540
12.2152   527
12.2252   493
12.2352   511
12.2452   502
12.2552   496
12.2652   519
12.2752   504
12.2852   510
12.2952   517
12.3052   493
12.3152   494
12.3252   513
12.3352   556
12.3452   510
12.3552   531
12.3652   510
12.3752   519
12.3852   498
12.3952   545
12.4052   507
12.4152   528
12.4252   509
12.4352   530
12.4452   502
12.4552   572
12.4652   501
12.4752   477
12.4852   476
12.4952   505
12.5053   532
12.5153   554
12.5253   495
12.5353   489
12.5453   526
12.5553   565
12.5653   525
12.5753   498
12.5853   504
12.5953   473
12.6053   502
12.6153   543
12.6253   506
12.6353   526
12.6453   536
12.6553   478
12.6653   498
12.6753   511
12.6853   522
12.6953   513
12.7053   513
12.7153   512
12.7253   506
12.7353   512
12.7453   521
12.7553   521
12.7653   501
12.7753   502
12.7853   487
12.7953   524
12.8053   469
12.8153   490
12.8253   558
12.8353   491
12.8453   522
12.8553   535
12.8653   468
12.8753   531
12.8853   529
12.8953   523
12.9053   504
12.9153   509
12.9253   469
12.9353   507
12.9453   515
12.9553   505
12.9653   479
12.9753   445
12.9853   531
12.9953   520
13.0053   537
13.0153   486
13.0253   541
13.0353   482
13.0453   487
13.0553   533
13.0653   495
13.0753   501
13.0853   498
13.0953   500
13.1053   447
13.1153   482
13.1253   544
13.1353   504
13.1453   492
13.1553   469
13.1653   520
13.1753   505
13.1853   498
13.1953   509
13.2053   496
13.2153   474
13.2253   485
13.2353   508
13.2453   518
13.2553   480
13.2653   478
13.2753   492
13.2853   510
13.2953   520
13.3053   505
13.3153   512
13.3253   566
13.3353   502
13.3453   474
13.3553   487
13.3653   484
13.3753   492
13.3853   482
13.3953   512
13.4053   510
13.4153   509
13.4253   505
13.4353   472
13.4453   455
13.4553   483
13.4653   482
13.4753   504
13.4853   500
13.4953   465
13.5054   501
13.5154   483
13.5254   458
13.5354   505
13.5454   468
13.5554   452
13.5654   436
13.5754   464
13.5854   498
13.5954   502
13.6054   464
13.6154   496
13.6254   499
13.6354   511
13.6454   490
13.6554   442
13.6654   443
13.6754   453
13.6854   489
13.6954   467
13.7054   462
13.7154   424
13.7254   476
13.7354   498
13.7454   455
13.7554   439
13.7654   433
13.7754   464
13.7854   453
13.7954   499
13.8054   441
13.8154   489
13.8254   482
13.8354   442
13.8454   481
13.8554   458
13.8654   460
13.8754   468
13.8854   488
13.8954   449
13.9054   426
13.9154   446
13.9254   487
13.9354   463
13.9454   445
13.9554   458
13.9654   430
13.9754   454
13.9854   473
13.9954   471
14.0054   491
14.0154   503
14.0254   443
14.0354   444
14.0454   467
14.0554   482
14.0654   484
14.0754   489
14.0854   486
14.0954   449
14.1054   492
14.1154   476
14.1254   478
14.1354   492
14.1454   526
14.1554   494
14.1654   484
14.1754   503
14.1854   506
14.1954   487
14.2054   491
14.2154   492
14.2254   489
14.2354   447
14.2454   473
14.2554   484
14.2654   445
14.2754   464
14.2854   449
14.2954   437
14.3054   452
14.3154   418
14.3254   432
14.3354   449
14.3454   418
14.3554   403
14.3654   423
14.3754   422
14.3854   439
14.3954   409
14.4054   437
14.4154   451
14.4254   433
14.4354   424
14.4454   406
14.4554   433
14.4654   457
14.4754   440
14.4854   431
14.4954   423
14.5055   377
14.5155   404
14.5255   410
14.5355   423
14.5455   429
14.5555   396
14.5655   460
14.5755   399
14.5855   407
14.5955   397
14.6055   406
14.6155   395
14.6255   392
14.6355   412
14.6455   396
14.6555   378
14.6655   395
14.6755   405
14.6855   395
14.6955   416
14.7055   402
14.7155   400
14.7255   387
14.7355   392
14.7455   372
14.7555   403
14.7655   374
14.7755   401
14.7855   396
14.7955   393
14.8055   407
14.8155   390
14.8255   380
14.8355   374
14.8455   390
14.8555   360
14.8655   366
14.8755   394
14.8855   364
14.8955   397
14.9055   385
14.9155   398
14.9255   381
14.9355   370
14.9455   384
14.9555   372
14.9655   368
14.9755   389
14.9855   394
14.9955   366
15.0055   382
15.0155   356
15.0255   404
15.0355   369
15.0455   378
15.0555   376
15.0655   358
15.0755   379
15.0855   393
15.0955   383
15.1055   379
15.1155   387
15.1255   364
15.1355   364
15.1455   381
15.1555   345
15.1655   337
15.1755   336
15.1855   337
15.1955   355
15.2055   351
15.2155   362
15.2255   361
15.2355   352
15.2455   374
15.2555   360
15.2655   372
15.2755   381
15.2855   358
15.2955   366
15.3055   362
15.3155   377
15.3255   351
15.3355   366
15.3455   334
15.3555   344
15.3655   350
15.3755   358
15.3855   346
15.3955   349
15.4055   332
15.4155   329
15.4255   342
15.4355   335
15.4455   319
15.4555   306
15.4655   336
15.4755   339
15.4855   339
15.4955   334
15.5056   356
15.5156   343
15.5256   339
15.5356   330
15.5456   364
15.5556   350
15.5656   335
15.5756   327
15.5856   349
15.5956   345
15.6056   324
15.6156   344
15.6256   332
15.6356   324
15.6456   350
15.6556   375
15.6656   345
15.6756   319
15.6856   325
15.6956   338
15.7056   372
15.7156   354
15.7256   323
15.7356   326
15.7456   315
15.7556   327
15.7656   354
15.7756   341
15.7856   344
15.7956   336
15.8056   341
15.8156   359
15.8256   353
15.8356   345
15.8456   343
15.8556   348
15.8656   351
15.8756   337
15.8856   322
15.8956   313
15.9056   323
15.9156   327
15.9256   328
15.9356   361
15.9456   346
15.9556   321
15.9656   290
15.9756   301
15.9856   320
15.9956   315
16.0056   331
16.0156   325
16.0256   313
16.0356   311
16.0456   334
16.0556   306
16.0656   306
16.0756   297
16.0856   310
16.0956   299
16.1056   310
16.1156   299
16.1256   291
16.1356   286
16.1456   304
16.1556   313
16.1656   304
16.1756   282
16.1856   285
16.1956   294
16.2056   295
16.2156   318
16.2256   275
16.2356   277
16.2456   289
16.2556   300
16.2656   300
16.2756   283
16.2856   295
16.2956   306
16.3056   297
16.3156   289
16.3256   272
16.3356   283
16.3456   296
16.3556   273
16.3656   276
16.3756   296
16.3856   291
16.3956   293
16.4056   270
16.4156   261
16.4256   269
16.4356   258
16.4456   257
16.4556   271
16.4656   267
16.4756   261
16.4856   263
16.4956   273
16.5057   274
16.5157   278
16.5257   257
16.5357   267
16.5457   286
16.5557   291
16.5657   297
16.5757   288
16.5857   262
16.5957   266
16.6057   271
16.6157   266
16.6257   254
16.6357   269
16.6457   283
16.6557   264
16.6657   264
16.6757   266
16.6857   272
16.6957   267
16.7057   256
16.7157   258
16.7257   253
16.7357   271
16.7457   270
16.7557   243
16.7657   245
16.7757   264
16.7857   267
16.7957   259
16.8057   251
16.8157   249
16.8257   247
16.8357   251
16.8457   272
16.8557   272
16.8657   265
16.8757   259
16.8857   231
16.8957   251
16.9057   278
16.9157   256
16.9257   277
16.9357   258
16.9457   234
16.9557   252
16.9657   239
16.9757   257
16.9857   261
16.9957   250
17.0057   265
17.0157   268
17.0257   249
17.0357   249
17.0457   249
17.0557   260
17.0657   250
17.0757   262
17.0857   244
17.0957   238
17.1057   245
17.1157   244
17.1257   242
17.1357   261
17.1457   247
17.1557   246
17.1657   238
17.1757   254
17.1857   261
17.1957   230
17.2057   227
17.2157   232
17.2257   240
17.2357   234
17.2457   235
17.2557   228
17.2657   243
17.2757   258
17.2857   254
17.2957   259
17.3057   251
17.3157   236
17.3257   239
17.3357   247
17.3457   256
17.3557   234
17.3657   230
17.3757   250
17.3857   233
17.3957   222
17.4057   219
17.4157   226
17.4257   238
17.4357   252
17.4457   258
17.4557   251
17.4657   254
17.4757   236
17.4857   239
17.4957   266
17.5058   247
17.5158   228
17.5258   241
17.5358   250
17.5458   246
17.5558   251
17.5658   250
17.5758   252
17.5858   253
17.5958   260
17.6058   251
17.6158   245
17.6258   246
17.6358   244
17.6458   254
17.6558   269
17.6658   245
17.6758   244
17.6858   262
17.6958   266
17.7058   257
17.7158   267
17.7258   272
17.7358   258
17.7458   272
17.7558   280
17.7658   279
17.7758   254
17.7858   254
17.7958   266
17.8058   250
17.8158   258
17.8258   255
17.8358   266
17.8458   288
17.8558   287
17.8658   269
17.8758   275
17.8858   275
17.8958   283
17.9058   279
17.9158   270
17.9258   267
17.9358   267
17.9458   280
17.9558   289
17.9658   268
17.9758   260
17.9858   268
17.9958   281
18.0058   294
18.0158   284
18.0258   280
18.0358   287
18.0458   287
18.0558   279
18.0658   280
18.0758   305
18.0858   316
18.0958   293
18.1058   291
18.1158   320
18.1258   310
18.1358   296
18.1458   306
18.1558   302
18.1658   312
18.1758   333
18.1858   344
18.1958   353
18.2058   347
18.2158   367
18.2258   385
18.2358   363
18.2458   369
18.2558   398
18.2658   378
18.2758   368
18.2858   403
18.2958   406
18.3058   421
18.3158   451
18.3258   455
18.3358   462
18.3458   478
18.3558   494
18.3658   510
18.3758   520
18.3858   518
18.3958   553
18.4058   571
18.4158   572
18.4258   610
18.4358   628
18.4458   648
18.4558   676
18.4658   691
18.4758   691
18.4858   713
18.4958   771
18.5059   798
18.5159   817
18.5259   868
18.5359   894
18.5459   928
18.5559   960
18.5659   929
18.5759   965
18.5859  1032
18.5959  1008
18.6059  1025
18.6159  1074
18.6259  1116
18.6359  1167
18.6459  1190
18.6559  1204
18.6659  1226
18.6759  1262
18.6859  1300
18.6959  1278
18.7059  1255
18.7159  1289
18.7259  1293
18.7359  1299
18.7459  1309
18.7559  1299
18.7659  1289
18.7759  1332
18.7859  1371
18.7959  1343
18.8059  1293
18.8159  1296
18.8259  1316
18.8359  1294
18.8459  1272
18.8559  1273
18.8659  1265
18.8759  1239
18.8859  1219
18.8959  1187
18.9059  1182
18.9159  1170
18.9259  1156
18.9359  1147
18.9459  1116
18.9559  1096
18.9659  1059
18.9759  1049
18.9859  1011
18.9959   988
19.0059   974
19.0159   903
19.0259   851
19.0359   848
19.0459   825
19.0559   807
19.0659   772
19.0759   718
19.0859   700
19.0959   681
19.1059   669
19.1159   644
19.1259   629
19.1359   604
19.1459   561
19.1559   554
19.1659   538
19.1759   492
19.1859   463
19.1959   442
19.2059   432
19.2159   428
19.2259   413
19.2359   418
19.2459   418
19.2559   391
19.2659   377
19.2759   371
19.2859   382
19.2959   380
19.3059   348
19.3159   333
19.3259   328
19.3359   316
19.3459   298
19.3559   293
19.3659   295
19.3759   299
19.3859   272
19.3959   284
19.4059   289
19.4159   267
19.4259   260
19.4359   243
19.4459   238
19.4559   238
19.4659   231
19.4759   239
19.4859   238
19.4959   214
 19.506   204
 19.516   221
 19.526   226
 19.536   240
 19.546   246
 19.556   235
 19.566   232
 19.576   227
 19.586   211
 19.596   208
 19.606   192
 19.616   180
 19.626   192
 19.636   197
 19.646   185
 19.656   177
 19.666   170
 19.676   187
 19.686   190
 19.696   182
 19.706   177
 19.716   158
 19.726   167
 19.736   179
 19.746   169
 19.756   167
 19.766   164
 19.776   159
 19.786   144
 19.796   154
 19.806   158
 19.816   156
 19.826   157
 19.836   145
 19.846   151
 19.856   151
 19.866   139
 19.876   146
 19.886   160
 19.896   151
 19.906   139
 19.916   146
 19.926   145
 19.936   153
 19.946   150
 19.956   152
 19.966   162
 19.976   179
 19.986   171
 19.996   182
 20.006   192
 20.016   214
 20.026   215
 20.036   235
 20.046   232
 20.056   229
 20.066   259
 20.076   259
 20.086   260
 20.096   265
 20.106   264
 20.116   274
 20.126   276
 20.136   282
 20.146   290
 20.156   308
 20.166   297
 20.176   285
 20.186   309
 20.196   299
 20.206   292
 20.216   314
 20.226   331
 20.236   302
 20.246   281
 20.256   286
 20.266   291
 20.276   290
 20.286   264
 20.296   239
 20.306   237
 20.316   233
 20.326   238
 20.336   217
 20.346   219
 20.356   199
 20.366   193
 20.376   179
 20.386   164
 20.396   155
 20.406   156
 20.416   157
 20.426   144
 20.436   127
 20.446   129
 20.456   131
 20.466   134
 20.476   117
 20.486   117
 20.496   127
20.5061   122
20.5161   121
20.5261   112
20.5361   135
20.5461   128
20.5561   119
20.5661   119
20.5761   121
20.5861   152
20.5961   141
20.6061   125
20.6161   131
20.6261   127
20.6361   139
20.6461   148
20.6561   145
20.6661   139
20.6761   154
20.6861   157
20.6961   146
20.7061   162
20.7161   167
20.7261   156
20.7361   151
20.7461   152
20.7561   163
20.7661   180
20.7761   152
20.7861   175
20.7961   182
20.8061   188
20.8161   198
20.8261   188
20.8361   178
20.8461   184
20.8561   190
20.8661   194
20.8761   184
20.8861   181
20.8961   196
20.9061   180
20.9161   181
20.9261   202
20.9361   208
20.9461   208
20.9561   203
20.9661   193
20.9761   195
20.9861   204
20.9961   188
21.0061   184
21.0161   192
21.0261   196
21.0361   189
21.0461   198
21.0561   189
21.0661   208
21.0761   204
21.0861   173
21.0961   175
21.1061   175
21.1161   181
21.1261   174
21.1361   175
21.1461   158
21.1561   161
21.1661   168
21.1761   158
21.1861   179
21.1961   169
21.2061   154
21.2161   146
21.2261   156
21.2361   154
21.2461   148
21.2561   153
21.2661   150
21.2761   148
21.2861   125
21.2961   138
21.3061   141
21.3161   122
21.3261   112
21.3361   136
21.3461   122
21.3561   114
21.3661   124
21.3761   130
21.3861   126
21.3961   105
21.4061    96
21.4161    97
21.4261   103
21.4361    95
21.4461    91
21.4561    92
21.4661    97
21.4761   103
21.4861    90
21.4961    97
21.5062    90
21.5162    74
21.5262    83
21.5362    93
21.5462    90
21.5562    87
21.5662    76
21.5762    79
21.5862    82
21.5962    76
21.6062    69
21.6162    67
21.6262    65
21.6362    65
21.6462    71
21.6562    62
21.6662    60
21.6762    75
21.6862    63
21.6962    66
21.7062    73
21.7162    62
21.7262    67
21.7362    73
21.7462    62
21.7562    69
21.7662    60
21.7762    45
21.7862    40
21.7962    59
21.8062    55
21.8162    60
21.8262    58
21.8362    60
21.8462    40
21.8562    46
21.8662    46
21.8762    59
21.8862    47
21.8962    46
21.9062    49
21.9162    50
21.9262    42
21.9362    43
21.9462    46
21.9562    46
21.9662    56
21.9762    56
21.9862    50
21.9962    40
22.0062    43
22.0162    40
22.0262    45
22.0362    49
22.0462    50
22.0562    47
22.0662    37
22.0762    34
22.0862    39
22.0962    34
22.1062    44
22.1162    53
22.1262    46
22.1362    37
22.1462    29
22.1562    40
22.1662    39
22.1762    42
22.1862    42
22.1962    43
22.2062    36
22.2162    32
22.2262    40
22.2362    35
22.2462    38
22.2562    32
22.2662    35
22.2762    41
22.2862    37
22.2962    32
22.3062    36
22.3162    40
22.3262    38
22.3362    36
22.3462    32
22.3562    30
22.3662    38
22.3762    37
22.3862    34
22.3962    36
22.4062    38
22.4162    36
22.4262    39
22.4362    38
22.4462    37
22.4562    36
22.4662    35
22.4762    36
22.4862    26
22.4962    40
22.5063    32
22.5163    41
22.5263    33
22.5363    34
22.5463    43
22.5563    35
22.5663    38
22.5763    35
22.5863    34
22.5963    37
22.6063    35
22.6163    34
22.6263    33
22.6363    42
22.6463    35
22.6563    44
22.6663    46
22.6763    44
22.6863    52
22.6963    51
22.7063    62
22.7163    53
22.7263    54
22.7363    41
22.7463    48
22.7563    45
22.7663    46
22.7763    39
22.7863    42
22.7963    48
22.8063    54
22.8163    35
22.8263    46
22.8363    30
22.8463    39
22.8563    28
22.8663    35
22.8763    35
22.8863    31
22.8963    27
22.9063    39
22.9163    34
22.9263    27
22.9363    25
22.9463    29
22.9563    25
22.9663    33
22.9763    28
22.9863    29
22.9963    29
23.0063    28
23.0163    35
23.0263    26
23.0363    30
23.0463    24
23.0563    31
23.0663    29
23.0763    25
23.0863    26
23.0963    22
23.1063    30
23.1163    25
23.1263    22
23.1363    24
23.1463    27
23.1563    31
23.1663    21
23.1763    28
23.1863    28
23.1963    24
23.2063    29
23.2163    14
23.2263    28
23.2363    18
23.2463    25
23.2563    25
23.2663    25
23.2763    31
23.2863    26
23.2963    34
23.3063    28
23.3163    18
23.3263    21
23.3363    19
23.3463    26
23.3563    26
23.3663    23
23.3763    19
23.3863    19
23.3963    19
23.4063    25
23.4163    28
23.4263    23
23.4363    24
23.4463    21
23.4563    17
23.4663    28
23.4763    25
23.4863    31
23.4963    18
23.5064    26
23.5164    27
23.5264    18
23.5364    24
23.5464    21
23.5564    17
23.5664    24
23.5764    15
23.5864    17
23.5964    19
23.6064    31
23.6164    16
23.6264    28
23.6364    21
23.6464    16
23.6564    22
23.6664    24
23.6764    24
23.6864     8
23.6964    20
23.7064    28
23.7164    20
23.7264    20
23.7364    16
23.7464    15
23.7564    20
23.7664    27
23.7764    22
23.7864    21
23.7964    13
23.8064    21
23.8164    16
23.8264    19
23.8364    13
23.8464    21
23.8564    20
23.8664    11
23.8764    25
23.8864    22
23.8964    13
23.9064    20
23.9164    18
23.9264    27
23.9364    19
23.9464    13
23.9564    20
23.9664    16
23.9764    12
23.9864    14
23.9964    21
24.0064    19
24.0164    21
24.0264    21
24.0364    22
24.0464    13
24.0564    14
24.0664    12
24.0764    17
24.0864    19
24.0964    20
24.1064    20
24.1164    18
24.1264    15
24.1364    17
24.1464    12
24.1564    20
24.1664    16
24.1764    16
24.1864    14
24.1964    16
24.2064    19
24.2164    27
24.2264    14
24.2364    22
24.2464    13
24.2564    13
24.2664    24
24.2764    11
24.2864    22
24.2964    16
24.3064    16
24.3164    21
24.3264     8
24.3364    16
24.3464    16
24.3564    22
24.3664    25
24.3764    23
24.3864    24
24.3964    10
24.4064    19
24.4164    18
24.4264    19
24.4364    15
24.4464    18
24.4564    12
24.4664    15
24.4764    14
24.4864    25
24.4964    10
24.5065    24
24.5165    13
24.5265    20
24.5365    20
24.5465    21
24.5565    15
24.5665    18
24.5765     6
24.5865    16
24.5965     9
24.6065    16
24.6165    20
24.6265    24
24.6365    11
24.6465    15
24.6565    22
24.6665    17
24.6765    19
24.6865    16
24.6965    15
24.7065    17
24.7165     8
24.7265    14
24.7365    15
24.7465    13
24.7565    18
24.7665    10
24.7765    19
24.7865    11
24.7965    12
24.8065    22
24.8165    15
24.8265    13
24.8365    17
24.8465    17
24.8565    20
24.8665    21
24.8765    10
24.8865     6
24.8965    14
24.9065    11
24.9165    14
24.9265    11
24.9365    14
24.9465    17
24.9565    13
24.9665    16
24.9765    16
24.9865    15
24.9965    18
25.0065    17
25.0165    13
25.0265     7
25.0365    13
25.0465    21
25.0565    16
25.0665     8
25.0765    13
25.0865    13
25.0965    16
25.1065    16
25.1165    19
25.1265    23
25.1365    13
25.1465    10
25.1565    15
25.1665    15
25.1765    16
25.1865    14
25.1965    11
25.2065    12
25.2165    14
25.2265    14
25.2365    19
25.2465    16
25.2565    10
25.2665    16
25.2765    18
25.2865    10
25.2965    11
25.3065    10
25.3165    14
25.3265    16
25.3365    10
25.3465    11
25.3565    12
25.3665    18
25.3765    13
25.3865    12
25.3965    14
25.4065    12
25.4165     9
25.4265    13
25.4365    14
25.4465    13
25.4565    17
25.4665    11
25.4765    12
25.4865    11
25.4965    15
25.5066    14
25.5166    10
25.5266    12
25.5366    17
25.5466    17
25.5566     6
25.5666    13
25.5766    13
25.5866    12
25.5966     9
25.6066    12
25.6166    10
25.6266    11
25.6366     8
25.6466    11
25.6566     9
25.6666    15
25.6766    15
25.6866    16
25.6966    12
25.7066    11
25.7166    10
25.7266     9
25.7366     7
25.7466     6
25.7566     9
25.7666     6
25.7766    15
25.7866    13
25.7966    13
25.8066    14
25.8166     7
25.8266     9
25.8366    14
25.8466     8
25.8566    10
25.8666    15
25.8766     9
25.8866    11
25.8966     9
25.9066    12
25.9166    13
25.9266    12
25.9366    12
25.9466     8
25.9566    12
25.9666     9
25.9766    12
25.9866    10
25.9966    16
26.0066    12
26.0166     8
26.0266     9
26.0366    14
26.0466    10
26.0566     8
26.0666     6
26.0766     8
26.0866    11
26.0966    12
26.1066    11
26.1166    12
26.1266    12
26.1366    14
26.1466     8
26.1566    14
26.1666    10
26.1766    15
26.1866    15
26.1966    11
26.2066    10
26.2166     9
26.2266     7
26.2366     7
26.2466     7
26.2566     9
26.2666    15
26.2766    11
26.2866    11
26.2966     9
26.3066    15
26.3166    11
26.3266     8
26.3366     9
26.3466    11
26.3566    11
26.3666    14
26.3766    13
26.3866    13
26.3966    14
26.4066     7
26.4166    11
26.4266    12
26.4366    10
26.4466    15
26.4566    10
26.4666    11
26.4766     8
26.4866     5
26.4966     5
26.5067     7
26.5167     6
26.5267     9
26.5367     4
26.5467     7
26.5567     8
26.5667     6
26.5767     8
26.5867    11
26.5967     8
26.6067     5
26.6167     9
26.6267    12
26.6367     8
26.6467     5
26.6567    12
26.6667     9
26.6767     6
26.6867    10
26.6967     9
26.7067     9
26.7167     7
26.7267     9
26.7367     4
26.7467     5
26.7567     8
26.7667     6
26.7767    10
26.7867     7
26.7967    10
26.8067     6
26.8167     8
26.8267     4
26.8367     8
26.8467     7
26.8567    10
26.8667     9
26.8767     7
26.8867     5
26.8967     6
26.9067     9
26.9167     6
26.9267     4
26.9367     5
26.9467     5
26.9567    12
26.9667     5
26.9767     4
26.9867     9
26.9967    11
27.0067     8
27.0167     8
27.0267    10
27.0367     6
27.0467     7
27.0567     7
27.0667    11
27.0767    10
27.0867     9
27.0967     4
27.1067     8
27.1167     9
27.1267    10
27.1367     6
27.1467     8
27.1567     9
27.1667     4
27.1767    11
27.1867     8
27.1967     9
27.2067     7
27.2167     5
27.2267     6
27.2367     7
27.2467     9
27.2567     6
27.2667     5
27.2767    11
27.2867     9
27.2967     6
27.3067     7
27.3167     6
27.3267     4
27.3367     5
27.3467     7
27.3567     6
27.3667     9
27.3767     6
27.3867     7
27.3967     7
27.4067     9
27.4167     7
27.4267     5
27.4367     8
27.4467     9
27.4567     8
27.4667     5
27.4767     9
27.4867    12
27.4967     8
27.5068     5
27.5168     3
27.5268     4
27.5368     4
27.5468     7
27.5568     6
27.5668     3
27.5768     3
27.5868     7
27.5968     3
27.6068     4
27.6168    11
27.6268     8
27.6368     6
27.6468     7
27.6568     8
27.6668     6
27.6768     7
27.6868     8
27.6968     8
27.7068    10
27.7168    10
27.7268     7
27.7368     6
27.7468     6
27.7568     7
27.7668     7
27.7768     6
27.7868     6
27.7968     4
27.8068     6
27.8168     9
27.8268    13
27.8368     9
27.8468     8
27.8568     8
27.8668     6
27.8768     5
27.8868     6
27.8968     9
27.9068     7
27.9168     7
27.9268     6
27.9368     7
27.9468     6
27.9568     4
27.9668     5
27.9768     5
27.9868     7
27.9968     7
28.0068     7
28.0168     5
28.0268     5
28.0368     6
28.0468     6
28.0568     6
28.0668     8
28.0768     6
28.0868     6
28.0968     6
28.1068     5
28.1168     6
28.1268     5
28.1368     6
28.1468     6
28.1568     8
28.1668     6
28.1768     7
28.1868    11
28.1968     9
28.2068     6
28.2168     6
28.2268     3
28.2368     2
28.2468     6
28.2568     7
28.2668     8
28.2768     8
28.2868     6
28.2968     6
28.3068     6
28.3168     7
28.3268     6
28.3368     5
28.3468     4
28.3568     5
28.3668     5
28.3768     5
28.3868     3
28.3968     4
28.4068     8
28.4168     6
28.4268     5
28.4368     4
28.4468     3
28.4568     7
28.4668     7
28.4768     7
28.4868     5
28.4968     4
28.5069     4
28.5169     7
28.5269     5
28.5369     4
28.5469     3
28.5569     6
28.5669     7
28.5769     5
28.5869     3
28.5969     0
28.6069     4
28.6169     5
28.6269     4
28.6369     3
28.6469     3
28.6569     5
28.6669     4
28.6769     4
28.6869     3
28.6969     3
28.7069     3
28.7169     1
28.7269     4
28.7369     6
28.7469     5
28.7569     4
28.7669     4
28.7769     4
28.7869     4
28.7969     5
28.8069     3
28.8169     4
28.8269     4
28.8369     4
28.8469     5
28.8569     6
28.8669     7
28.8769     6
28.8869     3
28.8969     2
28.9069     4
28.9169     5
28.9269     4
28.9369     3
28.9469     5
28.9569     4
28.9669     4
28.9769     4
28.9869     4
28.9969     5
29.0069     6
29.0169     6
29.0269     5
29.0369     4
29.0469     5
29.0569     3
29.0669     2
29.0769     2
29.0869     3
29.0969     4
29.1069     4
29.1169     2
29.1269     2
29.1369     3
29.1469     3
29.1569     5
29.1669     3
29.1769     2
29.1869     4
29.1969     5
29.2069     3
29.2169     4
29.2269     5
29.2369     4
29.2469     5
29.2569     5
29.2669     2
29.2769     3
29.2869     4
29.2969     6
29.3069     5
29.3169     5
29.3269     8
29.3369     5
29.3469     4
29.3569     5
29.3669     3
29.3769     2
29.3869     2
29.3969     4
29.4069     5
29.4169     3
29.4269     2
29.4369     5
29.4469     5
29.4569     3
29.4669     2
29.4769     3
29.4869     2
29.4969     4
 29.507     5
 29.517     4
 29.527     4
 29.537     5
 29.547     5
 29.557     6
 29.567     4
 29.577     5
 29.587     6
 29.597     4
 29.607     5
 29.617     3
 29.627     3
 29.637     4
 29.647     3
 29.657     2
 29.667     2
 29.677     1
 29.687     1
 29.697     3
 29.707     5
 29.717     5
 29.727     6
 29.737     5
 29.747     5
 29.757     4
 29.767     3
 29.777     5
 29.787     4
 29.797     3
 29.807     5
 29.817     4
 29.827     4
 29.837     5
 29.847     6
 29.857     5
 29.867     4
 29.877     3
 29.887     1
 29.897     1
 29.907     2
 29.917     3
 29.927     2
 29.937     2
 29.947     3
 29.957     5
 29.967     4
 29.977     5
 29.987     3
 29.997     1
 30.007     2
 30.017     4
 30.027     4
 30.037     5
 30.047     5
 30.057     4
 30.067     4
 30.077     3
 30.087     5
 30.097     6
 30.107     4
 30.117     2
 30.127     3
 30.137     3
 30.147     1
 30.157     2
 30.167     3
 30.177     4
 30.187     4
 30.197     6
 30.207     5
 30.217     3
 30.227     3
 30.237     3
 30.247     4
 30.257     5
 30.267     4
 30.277     6
 30.287     4
 30.297     2
 30.307     3
 30.317     4
 30.327     3
 30.337     1
 30.347     2
 30.357     4
 30.367     3
 30.377     4
 30.387     3
 30.397     3
 30.407     4
 30.417     3
 30.427     4
 30.437     5
 30.447     3
 30.457     3
 30.467     1
 30.477     2
 30.487     5
 30.497     4
30.5071     3
30.5171     3
30.5271     3
30.5371     4
30.5471     3
30.5571     5
30.5671     4
30.5771     3
30.5871     3
30.5971     3
30.6071     1
30.6171     2
30.6271     2
30.6371     3
30.6471     2
30.6571     2
30.6671     6
30.6771     5
30.6871     4
30.6971     4
30.7071     3
30.7171     3
30.7271     2
30.7371     2
30.7471     2
30.7571     2
30.7671     4
30.7771     4
30.7871     3
30.7971     2
30.8071     2
30.8171     2
30.8271     3
30.8371     2
30.8471     1
30.8571     2
30.8671     3
30.8771     5
30.8871     4
30.8971     2
30.9071     5
30.9171     4
30.9271     3
30.9371     4
30.9471     1
30.9571     2
30.9671     3
30.9771     3
30.9871     1
30.9971     1
31.0071     1
31.0171     4
31.0271     5
31.0371     1
31.0471     1
31.0571     2
31.0671     3
31.0771     3
31.0871     2
31.0971     4
31.1071     2
31.1171     1
31.1271     2
31.1371     2
31.1471     2
31.1571     4
31.1671     3
31.1771     2
31.1871     1
31.1971     1
31.2071     2
31.2171     4
31.2271     4
31.2371     4
31.2471     3
31.2571     6
31.2671     4
31.2771     2
31.2871     2
31.2971     1
31.3071     2
31.3171     3
31.3271     3
31.3371     3
31.3471     1
31.3571     2
31.3671     2
31.3771     3
31.3871     2
31.3971     3
31.4071     2
31.4171     2
31.4271     4
31.4371     4
31.4471     1
31.4571     1
31.4671     1
31.4771     1
31.4871     2
31.4971     2
31.5072     4
31.5172     4
31.5272     2
31.5372     0
31.5472     1
31.5572     2
31.5672     3
31.5772     2
31.5872     3
31.5972     4
31.6072     2
31.6172     3
31.6272     4
31.6372     3
31.6472     2
31.6572     2
31.6672     2
31.6772     3
31.6872     2
31.6972     3
31.7072     2
31.7172     1
31.7272     2
31.7372     3
31.7472     3
31.7572     1
31.7672     1
31.7772     3
31.7872     2
31.7972     3
31.8072     2
31.8172     1
31.8272     3
31.8372     3
31.8472     1
31.8572     2
31.8672     2
31.8772     2
31.8872     2
31.8972     1
31.9072     1
31.9172     2
31.9272     3
31.9372     4
31.9472     5
31.9572     3
31.9672     2
31.9772     2
31.9872     2
31.9972     4
32.0072     3
32.0172     1
32.0272     2
32.0372     2
32.0472     1
32.0572     1
32.0672     2
32.0772     2
32.0872     3
32.0972     1
32.1072     2
32.1172     3
32.1272     1
32.1372     2
32.1472     5
32.1572     4
32.1672     4
32.1772     3
32.1872     1
32.1972     3
32.2072     2
32.2172     0
32.2272     1
32.2372     3
32.2472     2
32.2572     2
32.2672     1
32.2772     3
32.2872     2
32.2972     3
32.3072     3
32.3172     4
32.3272     4
32.3372     3
32.3472     1
32.3572     0
32.3672     1
32.3772     1
32.3872     0
32.3972     1
32.4072     2
32.4172     2
32.4272     2
32.4372     3
32.4472     2
32.4572     1
32.4672     2
32.4772     2
32.4872     3
32.4972     1
32.5073     1
32.5173     1
32.5273     3
32.5373     3
32.5473     3
32.5573     1
32.5673     2
32.5773     1
32.5873     1
32.5973     2
32.6073     1
32.6173     2
32.6273     2
32.6373     1
32.6473     2
32.6573     1
32.6673     0
32.6773     0
32.6873     0
32.6973     0
32.7073     0
32.7173     1
32.7273     1
32.7373     1
32.7473     2
32.7573     3
32.7673     1
32.7773     1
32.7873     2
32.7973     1
32.8073     0
32.8173     1
32.8273     1
32.8373     1
32.8473     1
32.8573     1
32.8673     1
32.8773     3
32.8873     2
32.8973     1
32.9073     1
32.9173     0
32.9273     1
32.9373     0
32.9473     1
32.9573     3
32.9673     4
32.9773     1
32.9873     2
32.9973     1
33.0073     1
33.0173     2
33.0273     1
33.0373     2
33.0473     3
33.0573     3
33.0673     4
33.0773     3
33.0873     4
33.0973     2
33.1073     2
33.1173     0
33.1273     1
33.1373     1
33.1473     2
33.1573     1
33.1673     1
33.1773     2
33.1873     3
33.1973     2
33.2073     1
33.2173     1
33.2273     2
33.2373     2
33.2473     1
33.2573     1
33.2673     1
33.2773     2
33.2873     2
33.2973     3
33.3073     4
33.3173     1
33.3273     1
33.3373     2
33.3473     2
33.3573     1
33.3673     2
33.3773     1
33.3873     2
33.3973     1
33.4073     1
33.4173     2
33.4273     1
33.4373     1
33.4473     1
33.4573     1
33.4673     2
33.4773     1
33.4873     0
33.4973     1
33.5074     1
33.5174     1
33.5274     2
33.5374     1
33.5474     1
33.5574     1
33.5674     0
33.5774     1
33.5874     1
33.5974     0
33.6074     1
33.6174     2
33.6274     1
33.6374     2
33.6474     1
33.6574     2
33.6674     1
33.6774     1
33.6874     1
33.6974     1
33.7074     1
33.7174     1
33.7274     0
33.7374     1
33.7474     2
33.7574     4
33.7674     3
33.7774     3
33.7874     1
33.7974     2
33.8074     2
33.8174     2
33.8274     1
33.8374     0
33.8474     1
33.8574     1
33.8674     2
33.8774     2
33.8874     2
33.8974     1
33.9074     0
33.9174     0
33.9274     1
33.9374     2
33.9474     2
33.9574     1
33.9674     1
33.9774     1
33.9874     3
33.9974     2
34.0074     1
34.0174     1
34.0274     0
34.0374     0
34.0474     1
34.0574     1
34.0674     4
34.0774     1
34.0874     2
34.0974     1
34.1074     0
34.1174     1
34.1274     1
34.1374     0
34.1474     1
34.1574     4
34.1674     1
34.1774     2
34.1874     2
34.1974     1
34.2074     1
34.2174     0
34.2274     1
34.2374     2
34.2474     1
34.2574     1
34.2674     1
34.2774     2
34.2874     2
34.2974     2
34.3074     0
34.3174     0
34.3274     0
34.3374     1
34.3474     1
34.3574     2
34.3674     1
34.3774     0
34.3874     1
34.3974     0
34.4074     1
34.4174     1
34.4274     1
34.4374     2
34.4474     1
34.4574     1
34.4674     1
34.4774     2
34.4874     1
34.4974     1
34.5075     2
34.5175     1
34.5275     1
34.5375     1
34.5475     0
34.5575     0
34.5675     0
34.5775     2
34.5875     3
34.5975     2
34.6075     1
34.6175     0
34.6275     1
34.6375     0
34.6475     0
34.6575     1
34.6675     2
34.6775     2
34.6875     2
34.6975     1
34.7075     0
34.7175     0
34.7275     2
34.7375     2
34.7475     0
34.7575     1
34.7675     0
34.7775     1
34.7875     1
34.7975     0
34.8075     0
34.8175     1
34.8275     2
34.8375     1
34.8475     0
34.8575     1
34.8675     2
34.8775     0
34.8875     0
34.8975     1
34.9075     1
34.9175     0
34.9275     0
34.9375     1
34.9475     1
34.9575     1
34.9675     1
34.9775     1
34.9875     4
34.9975     1
35.0075     1
35.0175     1
35.0275     2
35.0375     1
35.0475     1
35.0575     0
35.0675     0
35.0775     0
35.0875     1
35.0975     3
35.1075     0
35.1175     0
35.1275     1
35.1375     1
35.1475     1
35.1575     2
35.1675     3
35.1775     3
35.1875     0
35.1975     1
35.2075     0
35.2175     1
35.2275     1
35.2375     0
35.2475     0
35.2575     1
35.2675     1
35.2775     0
35.2875     0
35.2975     1
35.3075     1
35.3175     0
35.3275     1
35.3375     2
35.3475     1
35.3575     1
35.3675     1
35.3775     0
35.3875     1
35.3975     0
35.4075     0
35.4175     1
35.4275     1
35.4375     1
35.4475     1
35.4575     1
35.4675     0
35.4775     0
35.4875     1
35.4975     2
35.5076     1
35.5176     1
35.5276     0
35.5376     1
35.5476     0
35.5576     0
35.5676     1
35.5776     1
35.5876     1
35.5976     1
35.6076     0
35.6176     0
35.6276     1
35.6376     2
35.6476     2
35.6576     3
35.6676     1
35.6776     0
35.6876     0
35.6976     0
35.7076     0
35.7176     0
35.7276     1
35.7376     0
35.7476     1
35.7576     2
35.7676     1
35.7776     0
35.7876     2
35.7976     2
35.8076     0
35.8176     1
35.8276     1
35.8376     1
35.8476     0
35.8576     0
35.8676     0
35.8776     1
35.8876     0
35.8976     1
35.9076     0
35.9176     1
35.9276     2
35.9376     1
35.9476     1
35.9576     0
35.9676     0
35.9776     1
35.9876     2
35.9976     1
36.0076     1
36.0176     1
36.0276     1
36.0376     0
36.0476     1
36.0576     1
36.0676     0
36.0776     0
36.0876     0
36.0976     0
36.1076     1
36.1176     0
36.1276     0
36.1376     1
36.1476     0
36.1576     1
36.1676     1
36.1776     1
36.1876     1
36.1976     0
36.2076     1
36.2176     2
36.2276     1
36.2376     0
36.2476     1
36.2576     0
36.2676     1
36.2776     0
36.2876     1
36.2976     1
36.3076     0
36.3176     0
36.3276     0
36.3376     0
36.3476     1
36.3576     0
36.3676     0
36.3776     1
36.3876     1
36.3976     0
36.4076     1
36.4176     1
36.4276     2
36.4376     1
36.4476     0
36.4576     1
36.4676     0
36.4776     1
36.4876     1
36.4976     0
36.5077     1
36.5177     1
36.5277     0
36.5377     0
36.5477     0
36.5577     1
36.5677     1
36.5777     0
36.5877     0
36.5977     1
36.6077     1
36.6177     0
36.6277     1
36.6377     1
36.6477     0
36.6577     0
36.6677     1
36.6777     1
36.6877     0
36.6977     0
36.7077     1
36.7177     0
36.7277     0
36.7377     0
36.7477     0
36.7577     1
36.7677     0
36.7777     0
36.7877     0
36.7977     0
36.8077     1
36.8177     1
36.8277     1
36.8377     0
36.8477     0
36.8577     0
36.8677     0
36.8777     1
36.8877     1
36.8977     0
36.9077     0
36.9177     0
36.9277     0
36.9377     1
36.9477     1
36.9577     0
36.9677     1
36.9777     0
36.9877     0
36.9977     1
37.0077     1
37.0177     0
37.0277     0
37.0377     2
37.0477     2
37.0577     0
37.0677     0
37.0777     0
37.0877     0
37.0977     0
37.1077     1
37.1177     0
37.1277     0
37.1377     0
37.1477     1
37.1577     0
37.1677     1
37.1777     2
37.1877     1
37.1977     0
37.2077     1
37.2177     1
37.2277     1
37.2377     0
37.2477     1
37.2577     0
37.2677     0
37.2777     0
37.2877     1
37.2977     1
37.3077     2
37.3177     1
37.3277     1
37.3377     0
37.3477     0
37.3577     1
37.3677     1
37.3777     0
37.3877     1
37.3977     2
37.4077     2
37.4177     0
37.4277     0
37.4377     1
37.4477     1
37.4577     3
37.4677     1
37.4777     1
37.4877     0
37.4977     1
37.5078     0
37.5178     0
37.5278     0
37.5378     0
37.5478     0
37.5578     1
37.5678     1
37.5778     1
37.5878     1
37.5978     0
37.6078     0
37.6178     0
37.6278     0
37.6378     1
37.6478     1
37.6578     0
37.6678     0
37.6778     0
37.6878     0
37.6978     1
37.7078     0
37.7178     0
37.7278     0
37.7378     0
37.7478     0
37.7578     1
37.7678     0
37.7778     0
37.7878     1
37.7978     1
37.8078     0
37.8178     0
37.8278     0
37.8378     0
37.8478     0
37.8578     0
37.8678     0
37.8778     0
37.8878     0
37.8978     1
37.9078     1
37.9178     0
37.9278     1
37.9378     0
37.9478     0
37.9578     0
37.9678     1
37.9778     2
37.9878     1
37.9978     1
38.0078     0
38.0178     0
38.0278     0
38.0378     1
38.0478     1
38.0578     1
38.0678     1
38.0778     0
38.0878     0
38.0978     0
38.1078     1
38.1178     0
38.1278     1
38.1378     1
38.1478     0
38.1578     0
38.1678     1
38.1778     0
38.1878     1
38.1978     2
38.2078     1
38.2178     0
38.2278     1
38.2378     2
38.2478     1
38.2578     0
38.2678     1
38.2778     1
38.2878     0
38.2978     0
38.3078     0
38.3178     0
38.3278     1
38.3378     1
38.3478     0
38.3578     0
38.3678     0
38.3778     0
38.3878     0
38.3978     1
38.4078     0
38.4178     0
38.4278     1
38.4378     1
38.4478     0
38.4578     0
38.4678     0
38.4778     0
38.4878     0
38.4978     0
38.5079     0
38.5179     0
38.5279     1
38.5379     1
38.5479     0
38.5579     0
38.5679     1
38.5779     0
38.5879     0
38.5979     1
38.6079     0
38.6179     0
38.6279     0
38.6379     0
38.6479     0
38.6579     0
38.6679     1
38.6779     0
38.6879     1
38.6979     0
38.7079     0
38.7179     0
38.7279     0
38.7379     0
38.7479     0
38.7579     1
38.7679     2
38.7779     1
38.7879     1
38.7979     0
38.8079     0
38.8179     1
38.8279     0
38.8379     0
38.8479     0
38.8579     0
38.8679     1
38.8779     1
38.8879     0
38.8979     0
38.9079     0
38.9179     0
38.9279     0
38.9379     0
38.9479     0
38.9579     0
38.9679     0
38.9779     1
38.9879     0
38.9979     1
39.0079     1
39.0179     0
39.0279     0
39.0379     0
39.0479     0
39.0579     0
39.0679     0
39.0779     0
39.0879     0
39.0979     0
39.1079     0
39.1179     0
39.1279     1
39.1379     0
39.1479     1
39.1579     1
39.1679     0
39.1779     1
39.1879     0
39.1979     1
39.2079     0
39.2179     1
39.2279     1
39.2379     0
39.2479     0
39.2579     0
39.2679     1
39.2779     0
39.2879     0
39.2979     1
39.3079     1
39.3179     0
39.3279     0
39.3379     0
39.3479     0
39.3579     1
39.3679     1
39.3779     0
39.3879     0
39.3979     0
39.4079     0
39.4179     0
39.4279     0
39.4379     0
39.4479     0
39.4579     0
39.4679     1
39.4779     0
39.4879     0
39.4979     0
 39.508     0
 39.518     0
 39.528     1
 39.538     0
 39.548     0
 39.558     0
 39.568     0
 39.578     0
 39.588     0
 39.598     0
 39.608     0
 39.618     0
 39.628     0
 39.638     1
 39.648     0
 39.658     0
 39.668     0
 39.678     1
 39.688     1
 39.698     1
 39.708     1
 39.718     1
 39.728     0
 39.738     0
 39.748     1
 39.758     0
 39.768     0
 39.778     1
 39.788     0
 39.798     0
 39.808     0
 39.818     1
 39.828     1
 39.838     0
 39.848     0
 39.858     1
 39.868     1
 39.878     0
 39.888     0
 39.898     0
 39.908     0
 39.918     0
 39.928     0
 39.938     0
 39.948     1
 39.958     0
 39.968     0
 39.978     0
 39.988     0
 39.998     0
